%OpenBCI Raw EXG Data
%Number of channels = 8
%Sample Rate = 250 Hz
%Board = OpenBCI_GUI$BoardCytonSerial
Sample Index, EXG Channel 0, EXG Channel 1, EXG Channel 2, EXG Channel 3, EXG Channel 4, EXG Channel 5, EXG Channel 6, EXG Channel 7, Accel Channel 0, Accel Channel 1, Accel Channel 2, Not Used, Digital Channel 0 (D11), Digital Channel 1 (D12), Digital Channel 2 (D13), Digital Channel 3 (D17), Not Used, Digital Channel 4 (D18), Analog Channel 0, Analog Channel 1, Analog Channel 2, Timestamp, Marker Channel, Timestamp (Formatted)
0.0, 2999.8723268356716, 18312.203086877238, -9984.904227841405, 0.0, 0.0, 0.0, 0.0, 0.0, 0.012, -0.002, -0.506, 192.0, 0.0, 96.0, 255.0, 240.0, 240.0, 48.0, 0.0, 0.0, 0.0, 1.751028844326189E9, 0.0, 2025-06-27 14:54:04.326
1.0, 3086.172412177612, 18340.43334012429, -10091.2314762153, 0.0, 0.0, 0.0, 0.0, 0.0, 0.012, -0.002, -0.506, 192.0, 0.0, 0.0, 0.0, 0.0, 0.0, 0.0, 0.0, 0.0, 0.0, 1.75102884432884E9, 0.0, 2025-06-27 14:54:04.328
2.0, 3204.4354920906417, 18345.462482626735, -10194.898866999016, 0.0, 0.0, 0.0, 0.0, 0.0, 0.012, -0.002, -0.506, 192.0, 0.0, 0.0, 0.0, 0.0, 0.0, 0.0, 0.0, 0.0, 0.0, 1.751028844331825E9, 0.0, 2025-06-27 14:54:04.331
3.0, 3197.5735065428626, 18323.53542131608, -10152.899939167493, 0.0, 0.0, 0.0, 0.0, 0.0, 0.012, -0.002, -0.506, 192.0, 0.0, 0.0, 0.0, 0.0, 0.0, 0.0, 0.0, 0.0, 0.0, 1.75102884433679E9, 0.0, 2025-06-27 14:54:04.336
4.0, 3085.8371360107826, 18306.10106064094, -10018.901231157926, 0.0, 0.0, 0.0, 0.0, 0.0, 0.012, -0.002, -0.506, 192.0, 0.0, 0.0, 0.0, 0.0, 0.0, 0.0, 0.0, 0.0, 0.0, 1.751028844339817E9, 0.0, 2025-06-27 14:54:04.339
5.0, 3027.07439983778, 18311.554886288035, -9976.4552684373, 0.0, 0.0, 0.0, 0.0, 0.0, 0.012, -0.002, -0.506, 192.0, 0.0, 0.0, 0.0, 0.0, 0.0, 0.0, 0.0, 0.0, 0.0, 1.751028844343818E9, 0.0, 2025-06-27 14:54:04.343
6.0, 3113.173319479623, 18327.603438806946, -10090.76208958174, 0.0, 0.0, 0.0, 0.0, 0.0, 0.012, -0.002, -0.506, 192.0, 0.0, 0.0, 0.0, 0.0, 0.0, 0.0, 0.0, 0.0, 0.0, 1.751028844347837E9, 0.0, 2025-06-27 14:54:04.347
7.0, 3234.9903267610466, 18343.696694814767, -10200.039768223736, 0.0, 0.0, 0.0, 0.0, 0.0, 0.014, -0.002, -0.76, 192.0, 0.0, 112.0, 255.0, 240.0, 232.0, 64.0, 0.0, 0.0, 0.0, 1.751028844351843E9, 0.0, 2025-06-27 14:54:04.351
8.0, 3223.97091674458, 18329.95037197475, -10160.477180537842, 0.0, 0.0, 0.0, 0.0, 0.0, 0.014, -0.002, -0.76, 192.0, 0.0, 0.0, 0.0, 0.0, 0.0, 0.0, 0.0, 0.0, 0.0, 1.751028844355853E9, 0.0, 2025-06-27 14:54:04.355
9.0, 3087.9605517340365, 18305.788136218565, -10029.36184756301, 0.0, 0.0, 0.0, 0.0, 0.0, 0.014, -0.002, -0.76, 192.0, 0.0, 0.0, 0.0, 0.0, 0.0, 0.0, 0.0, 0.0, 0.0, 1.751028844359877E9, 0.0, 2025-06-27 14:54:04.359
10.0, 3007.3601612281996, 18310.39259557636, -9984.211323763291, 0.0, 0.0, 0.0, 0.0, 0.0, 0.014, -0.002, -0.76, 192.0, 0.0, 0.0, 0.0, 0.0, 0.0, 0.0, 0.0, 0.0, 0.0, 1.751028844364901E9, 0.0, 2025-06-27 14:54:04.364
11.0, 3103.003275752458, 18339.516918601625, -10101.133299009001, 0.0, 0.0, 0.0, 0.0, 0.0, 0.014, -0.002, -0.76, 192.0, 0.0, 0.0, 0.0, 0.0, 0.0, 0.0, 0.0, 0.0, 0.0, 1.751028844367864E9, 0.0, 2025-06-27 14:54:04.367
12.0, 3223.9262132556696, 18351.944488518773, -10223.486748157353, 0.0, 0.0, 0.0, 0.0, 0.0, 0.014, -0.002, -0.76, 192.0, 0.0, 0.0, 0.0, 0.0, 0.0, 0.0, 0.0, 0.0, 0.0, 1.751028844371875E9, 0.0, 2025-06-27 14:54:04.371
13.0, 3210.269297393477, 18325.837650994974, -10176.615140034573, 0.0, 0.0, 0.0, 0.0, 0.0, 0.014, -0.002, -0.76, 192.0, 0.0, 0.0, 0.0, 0.0, 0.0, 0.0, 0.0, 0.0, 0.0, 1.751028844375964E9, 0.0, 2025-06-27 14:54:04.375
14.0, 3070.4144323366204, 18305.274046096092, -10038.995449423248, 0.0, 0.0, 0.0, 0.0, 0.0, 0.014, -0.002, -0.76, 192.0, 0.0, 0.0, 0.0, 0.0, 0.0, 0.0, 0.0, 0.0, 0.0, 1.751028844379982E9, 0.0, 2025-06-27 14:54:04.379
15.0, 2999.40294020211, 18314.080633411486, -9981.462059195288, 0.0, 0.0, 0.0, 0.0, 0.0, 0.014, -0.002, -0.76, 192.0, 0.0, 0.0, 0.0, 0.0, 0.0, 0.0, 0.0, 0.0, 0.0, 1.751028844384033E9, 0.0, 2025-06-27 14:54:04.384
16.0, 3095.180165193101, 18342.82497678101, -10101.602685642563, 0.0, 0.0, 0.0, 0.0, 0.0, 0.018000000000000002, -0.002, -0.884, 192.0, 0.0, 144.0, 255.0, 240.0, 228.0, 96.0, 0.0, 0.0, 0.0, 1.75102884438801E9, 0.0, 2025-06-27 14:54:04.388
17.0, 3236.3984866617307, 18358.024163010617, -10221.810367323205, 0.0, 0.0, 0.0, 0.0, 0.0, 0.018000000000000002, -0.002, -0.884, 192.0, 0.0, 0.0, 0.0, 0.0, 0.0, 0.0, 0.0, 0.0, 0.0, 1.751028844393039E9, 0.0, 2025-06-27 14:54:04.393
18.0, 3218.8523672643146, 18337.862889511933, -10194.652997810006, 0.0, 0.0, 0.0, 0.0, 0.0, 0.018000000000000002, -0.002, -0.884, 192.0, 0.0, 0.0, 0.0, 0.0, 0.0, 0.0, 0.0, 0.0, 0.0, 1.751028844395957E9, 0.0, 2025-06-27 14:54:04.395
19.0, 3074.974188205503, 18325.368264361416, -10048.964327450316, 0.0, 0.0, 0.0, 0.0, 0.0, 0.018000000000000002, -0.002, -0.884, 192.0, 0.0, 0.0, 0.0, 0.0, 0.0, 0.0, 0.0, 0.0, 0.0, 1.751028844399936E9, 0.0, 2025-06-27 14:54:04.399
20.0, 3018.714847411495, 18329.235116152184, -9992.436765722843, 0.0, 0.0, 0.0, 0.0, 0.0, 0.018000000000000002, -0.002, -0.884, 192.0, 0.0, 0.0, 0.0, 0.0, 0.0, 0.0, 0.0, 0.0, 0.0, 1.751028844403939E9, 0.0, 2025-06-27 14:54:04.403
21.0, 3125.9808690525138, 18340.58980233548, -10111.482156691809, 0.0, 0.0, 0.0, 0.0, 0.0, 0.018000000000000002, -0.002, -0.884, 192.0, 0.0, 0.0, 0.0, 0.0, 0.0, 0.0, 0.0, 0.0, 0.0, 1.751028844407946E9, 0.0, 2025-06-27 14:54:04.407
22.0, 3243.3051756984205, 18353.10677923045, -10219.128157988567, 0.0, 0.0, 0.0, 0.0, 0.0, 0.018000000000000002, -0.002, -0.884, 192.0, 0.0, 0.0, 0.0, 0.0, 0.0, 0.0, 0.0, 0.0, 0.0, 1.751028844411988E9, 0.0, 2025-06-27 14:54:04.411
23.0, 3231.034067992457, 18346.44595938277, -10193.133079187046, 0.0, 0.0, 0.0, 0.0, 0.0, 0.018000000000000002, -0.002, -0.884, 192.0, 0.0, 0.0, 0.0, 0.0, 0.0, 0.0, 0.0, 0.0, 0.0, 1.751028844415993E9, 0.0, 2025-06-27 14:54:04.415
24.0, 3113.3521334352654, 18319.355645102936, -10057.502693832243, 0.0, 0.0, 0.0, 0.0, 0.0, 0.018000000000000002, -0.002, -0.884, 192.0, 0.0, 0.0, 0.0, 0.0, 0.0, 0.0, 0.0, 0.0, 0.0, 1.751028844421996E9, 0.0, 2025-06-27 14:54:04.421
25.0, 3038.0267546208806, 18318.305113113536, -9999.432861737354, 0.0, 0.0, 0.0, 0.0, 0.0, 0.018000000000000002, -0.002, -0.884, 192.0, 0.0, 0.0, 0.0, 0.0, 0.0, 0.0, 0.0, 0.0, 0.0, 1.751028844425006E9, 0.0, 2025-06-27 14:54:04.425
26.0, 3101.952743763059, 18359.186453722294, -10108.934057823904, 0.0, 0.0, 0.0, 0.0, 0.0, 0.02, -0.008, -0.9420000000000001, 192.0, 0.0, 160.0, 255.0, 192.0, 226.0, 144.0, 0.0, 0.0, 0.0, 1.751028844429031E9, 0.0, 2025-06-27 14:54:04.429
27.0, 3217.4442073636305, 18380.979404566217, -10231.98041105037, 0.0, 0.0, 0.0, 0.0, 0.0, 0.02, -0.008, -0.9420000000000001, 192.0, 0.0, 0.0, 0.0, 0.0, 0.0, 0.0, 0.0, 0.0, 0.0, 1.751028844432016E9, 0.0, 2025-06-27 14:54:04.432
28.0, 3239.2818616964655, 18338.846366267964, -10190.54027683023, 0.0, 0.0, 0.0, 0.0, 0.0, 0.02, -0.008, -0.9420000000000001, 192.0, 0.0, 0.0, 0.0, 0.0, 0.0, 0.0, 0.0, 0.0, 0.0, 1.75102884443603E9, 0.0, 2025-06-27 14:54:04.436
29.0, 3143.683450661117, 18318.99801719165, -10056.876844987493, 0.0, 0.0, 0.0, 0.0, 0.0, 0.02, -0.008, -0.9420000000000001, 192.0, 0.0, 0.0, 0.0, 0.0, 0.0, 0.0, 0.0, 0.0, 0.0, 1.75102884444004E9, 0.0, 2025-06-27 14:54:04.440
30.0, 3117.6436683706843, 18329.458633596736, -10002.807975150106, 0.0, 0.0, 0.0, 0.0, 0.0, 0.02, -0.008, -0.9420000000000001, 192.0, 0.0, 0.0, 0.0, 0.0, 0.0, 0.0, 0.0, 0.0, 0.0, 1.751028844444074E9, 0.0, 2025-06-27 14:54:04.444
31.0, 3139.9954128259915, 18343.49552911467, -10105.022502544225, 0.0, 0.0, 0.0, 0.0, 0.0, 0.02, -0.008, -0.9420000000000001, 192.0, 0.0, 0.0, 0.0, 0.0, 0.0, 0.0, 0.0, 0.0, 0.0, 1.751028844448075E9, 0.0, 2025-06-27 14:54:04.448
32.0, 3171.332558552332, 18360.52755838961, -10238.820044853694, 0.0, 0.0, 0.0, 0.0, 0.0, 0.02, -0.008, -0.9420000000000001, 192.0, 0.0, 0.0, 0.0, 0.0, 0.0, 0.0, 0.0, 0.0, 0.0, 1.751028844452093E9, 0.0, 2025-06-27 14:54:04.452
33.0, 3185.5482680259074, 18343.182604692294, -10194.87651525456, 0.0, 0.0, 0.0, 0.0, 0.0, 0.02, -0.008, -0.9420000000000001, 192.0, 0.0, 0.0, 0.0, 0.0, 0.0, 0.0, 0.0, 0.0, 0.0, 1.751028844455123E9, 0.0, 2025-06-27 14:54:04.455
34.0, 3090.03926396838, 18313.141860144362, -10048.092609416559, 0.0, 0.0, 0.0, 0.0, 0.0, 0.02, -0.008, -0.9420000000000001, 192.0, 0.0, 0.0, 0.0, 0.0, 0.0, 0.0, 0.0, 0.0, 0.0, 1.751028844459129E9, 0.0, 2025-06-27 14:54:04.459
35.0, 3047.2356733364672, 18314.080633411486, -9992.54852444512, 0.0, 0.0, 0.0, 0.0, 0.0, 0.02, -0.008, -0.9420000000000001, 192.0, 0.0, 0.0, 0.0, 0.0, 0.0, 0.0, 0.0, 0.0, 0.0, 1.751028844464112E9, 0.0, 2025-06-27 14:54:04.464
36.0, 3154.9040263776815, 18339.24869766816, -10107.48119443431, 0.0, 0.0, 0.0, 0.0, 0.0, 0.016, -0.008, -0.976, 192.0, 0.0, 128.0, 255.0, 192.0, 225.0, 128.0, 0.0, 0.0, 0.0, 1.751028844468121E9, 0.0, 2025-06-27 14:54:04.468
37.0, 3265.3886992202642, 18345.037799482085, -10216.758873076305, 0.0, 0.0, 0.0, 0.0, 0.0, 0.016, -0.008, -0.976, 192.0, 0.0, 0.0, 0.0, 0.0, 0.0, 0.0, 0.0, 0.0, 0.0, 1.751028844472152E9, 0.0, 2025-06-27 14:54:04.472
38.0, 3249.6754228681834, 18324.83182249449, -10186.49461108382, 0.0, 0.0, 0.0, 0.0, 0.0, 0.016, -0.008, -0.976, 192.0, 0.0, 0.0, 0.0, 0.0, 0.0, 0.0, 0.0, 0.0, 0.0, 1.751028844476134E9, 0.0, 2025-06-27 14:54:04.476
39.0, 3085.881839499693, 18312.06897641051, -10054.641670541963, 0.0, 0.0, 0.0, 0.0, 0.0, 0.016, -0.008, -0.976, 192.0, 0.0, 0.0, 0.0, 0.0, 0.0, 0.0, 0.0, 0.0, 0.0, 1.75102884448015E9, 0.0, 2025-06-27 14:54:04.480
40.0, 3015.138568298646, 18320.763805003622, -9998.561143703597, 0.0, 0.0, 0.0, 0.0, 0.0, 0.016, -0.008, -0.976, 192.0, 0.0, 0.0, 0.0, 0.0, 0.0, 0.0, 0.0, 0.0, 0.0, 1.751028844483175E9, 0.0, 2025-06-27 14:54:04.483
41.0, 3115.6767148586173, 18340.478043613202, -10114.767863126739, 0.0, 0.0, 0.0, 0.0, 0.0, 0.016, -0.008, -0.976, 192.0, 0.0, 0.0, 0.0, 0.0, 0.0, 0.0, 0.0, 0.0, 0.0, 1.751028844487169E9, 0.0, 2025-06-27 14:54:04.487
42.0, 3227.390733646242, 18350.357514662446, -10229.544070904742, 0.0, 0.0, 0.0, 0.0, 0.0, 0.016, -0.008, -0.976, 192.0, 0.0, 0.0, 0.0, 0.0, 0.0, 0.0, 0.0, 0.0, 0.0, 1.75102884449221E9, 0.0, 2025-06-27 14:54:04.492
43.0, 3225.3120214118985, 18342.377941891904, -10194.2059629209, 0.0, 0.0, 0.0, 0.0, 0.0, 0.016, -0.008, -0.976, 192.0, 0.0, 0.0, 0.0, 0.0, 0.0, 0.0, 0.0, 0.0, 0.0, 1.751028844496159E9, 0.0, 2025-06-27 14:54:04.496
44.0, 3115.341438691788, 18329.54804057456, -10062.844760757062, 0.0, 0.0, 0.0, 0.0, 0.0, 0.016, -0.008, -0.976, 192.0, 0.0, 0.0, 0.0, 0.0, 0.0, 0.0, 0.0, 0.0, 0.0, 1.751028844500174E9, 0.0, 2025-06-27 14:54:04.500
45.0, 3051.370746060699, 18336.611191822434, -10012.55333573262, 0.0, 0.0, 0.0, 0.0, 0.0, 0.016, -0.008, -0.976, 192.0, 0.0, 0.0, 0.0, 0.0, 0.0, 0.0, 0.0, 0.0, 0.0, 1.751028844503216E9, 0.0, 2025-06-27 14:54:04.503
46.0, 3131.3229359773322, 18360.81813106753, -10113.67262764843, 0.0, 0.0, 0.0, 0.0, 0.0, 0.014, -0.012, -0.992, 192.0, 0.0, 112.0, 255.0, 160.0, 225.0, 0.0, 0.0, 0.0, 0.0, 1.751028844507228E9, 0.0, 2025-06-27 14:54:04.507
47.0, 3263.5335044304734, 18366.271956714627, -10239.088265787157, 0.0, 0.0, 0.0, 0.0, 0.0, 0.014, -0.012, -0.992, 192.0, 0.0, 0.0, 0.0, 0.0, 0.0, 0.0, 0.0, 0.0, 0.0, 1.751028844511199E9, 0.0, 2025-06-27 14:54:04.511
48.0, 3256.090373526856, 18342.646162825367, -10208.756948561306, 0.0, 0.0, 0.0, 0.0, 0.0, 0.014, -0.012, -0.992, 192.0, 0.0, 0.0, 0.0, 0.0, 0.0, 0.0, 0.0, 0.0, 0.0, 1.751028844515217E9, 0.0, 2025-06-27 14:54:04.515
49.0, 3114.5367758913967, 18326.66466553982, -10061.503656089742, 0.0, 0.0, 0.0, 0.0, 0.0, 0.014, -0.012, -0.992, 192.0, 0.0, 0.0, 0.0, 0.0, 0.0, 0.0, 0.0, 0.0, 0.0, 1.751028844520228E9, 0.0, 2025-06-27 14:54:04.520
50.0, 3058.344490330755, 18338.064055212028, -10019.549431747131, 0.0, 0.0, 0.0, 0.0, 0.0, 0.014, -0.012, -0.992, 192.0, 0.0, 0.0, 0.0, 0.0, 0.0, 0.0, 0.0, 0.0, 0.0, 1.751028844524264E9, 0.0, 2025-06-27 14:54:04.524
51.0, 3152.6465001876954, 18359.49937814467, -10132.76101741326, 0.0, 0.0, 0.0, 0.0, 0.0, 0.014, -0.012, -0.992, 192.0, 0.0, 0.0, 0.0, 0.0, 0.0, 0.0, 0.0, 0.0, 0.0, 1.751028844528244E9, 0.0, 2025-06-27 14:54:04.528
52.0, 3285.7287866745937, 18385.427401712823, -10248.207777524922, 0.0, 0.0, 0.0, 0.0, 0.0, 0.014, -0.012, -0.992, 192.0, 0.0, 0.0, 0.0, 0.0, 0.0, 0.0, 0.0, 0.0, 0.0, 1.751028844531241E9, 0.0, 2025-06-27 14:54:04.531
53.0, 3273.591789435362, 18360.54991013407, -10219.73165508886, 0.0, 0.0, 0.0, 0.0, 0.0, 0.014, -0.012, -0.992, 192.0, 0.0, 0.0, 0.0, 0.0, 0.0, 0.0, 0.0, 0.0, 0.0, 1.751028844535257E9, 0.0, 2025-06-27 14:54:04.535
54.0, 3127.52313941993, 18334.845404010466, -10074.557074851642, 0.0, 0.0, 0.0, 0.0, 0.0, 0.014, -0.012, -0.992, 192.0, 0.0, 0.0, 0.0, 0.0, 0.0, 0.0, 0.0, 0.0, 0.0, 1.75102884453926E9, 0.0, 2025-06-27 14:54:04.539
55.0, 3076.069423683813, 18349.597555350967, -10025.60675449452, 0.0, 0.0, 0.0, 0.0, 0.0, 0.014, -0.012, -0.992, 192.0, 0.0, 0.0, 0.0, 0.0, 0.0, 0.0, 0.0, 0.0, 0.0, 1.751028844545314E9, 0.0, 2025-06-27 14:54:04.545
56.0, 3138.9001773476816, 18369.35649744946, -10112.644447403485, 0.0, 0.0, 0.0, 0.0, 0.0, 0.012, -0.014, -0.998, 192.0, 0.0, 96.0, 255.0, 144.0, 224.0, 208.0, 0.0, 0.0, 0.0, 1.751028844548353E9, 0.0, 2025-06-27 14:54:04.548
57.0, 3277.0116063370237, 18384.622738912432, -10245.525568190285, 0.0, 0.0, 0.0, 0.0, 0.0, 0.012, -0.014, -0.998, 192.0, 0.0, 0.0, 0.0, 0.0, 0.0, 0.0, 0.0, 0.0, 0.0, 1.751028844552336E9, 0.0, 2025-06-27 14:54:04.552
58.0, 3281.8842866282807, 18349.552851862056, -10223.151471990523, 0.0, 0.0, 0.0, 0.0, 0.0, 0.012, -0.014, -0.998, 192.0, 0.0, 0.0, 0.0, 0.0, 0.0, 0.0, 0.0, 0.0, 0.0, 1.751028844556371E9, 0.0, 2025-06-27 14:54:04.556
59.0, 3120.8399678277933, 18345.931869260297, -10058.195597910357, 0.0, 0.0, 0.0, 0.0, 0.0, 0.012, -0.014, -0.998, 192.0, 0.0, 0.0, 0.0, 0.0, 0.0, 0.0, 0.0, 0.0, 0.0, 1.75102884456036E9, 0.0, 2025-06-27 14:54:04.560
60.0, 3055.103487384735, 18338.91342150133, -10022.142234103947, 0.0, 0.0, 0.0, 0.0, 0.0, 0.012, -0.014, -0.998, 192.0, 0.0, 0.0, 0.0, 0.0, 0.0, 0.0, 0.0, 0.0, 0.0, 1.751028844563389E9, 0.0, 2025-06-27 14:54:04.563
61.0, 3156.2451310449997, 18373.31275621805, -10139.086561094113, 0.0, 0.0, 0.0, 0.0, 0.0, 0.012, -0.014, -0.998, 192.0, 0.0, 0.0, 0.0, 0.0, 0.0, 0.0, 0.0, 0.0, 0.0, 1.751028844567412E9, 0.0, 2025-06-27 14:54:04.567
62.0, 3254.101068270334, 18372.284575973103, -10239.803521609727, 0.0, 0.0, 0.0, 0.0, 0.0, 0.012, -0.014, -0.998, 192.0, 0.0, 0.0, 0.0, 0.0, 0.0, 0.0, 0.0, 0.0, 0.0, 1.75102884457136E9, 0.0, 2025-06-27 14:54:04.571
63.0, 3267.8920945992586, 18350.44692164027, -10229.320553460188, 0.0, 0.0, 0.0, 0.0, 0.0, 0.012, -0.014, -0.998, 192.0, 0.0, 0.0, 0.0, 0.0, 0.0, 0.0, 0.0, 0.0, 0.0, 1.751028844575405E9, 0.0, 2025-06-27 14:54:04.575
64.0, 3129.981831310014, 18355.990154265186, -10080.167362709924, 0.0, 0.0, 0.0, 0.0, 0.0, 0.012, -0.014, -0.998, 192.0, 0.0, 0.0, 0.0, 0.0, 0.0, 0.0, 0.0, 0.0, 0.0, 1.75102884458036E9, 0.0, 2025-06-27 14:54:04.580
65.0, 3060.087926398269, 18363.276822957614, -10032.044056897648, 0.0, 0.0, 0.0, 0.0, 0.0, 0.012, -0.014, -0.998, 192.0, 0.0, 0.0, 0.0, 0.0, 0.0, 0.0, 0.0, 0.0, 0.0, 1.751028844584375E9, 0.0, 2025-06-27 14:54:04.584
66.0, 3125.6455928856844, 18355.788988565087, -10132.403389501977, 0.0, 0.0, 0.0, 0.0, 0.0, 0.018000000000000002, -0.012, -1.002, 192.0, 0.0, 144.0, 255.0, 160.0, 224.0, 176.0, 0.0, 0.0, 0.0, 1.751028844588389E9, 0.0, 2025-06-27 14:54:04.588
67.0, 3233.872739538281, 18347.608250094443, -10248.252481013833, 0.0, 0.0, 0.0, 0.0, 0.0, 0.018000000000000002, -0.012, -1.002, 192.0, 0.0, 0.0, 0.0, 0.0, 0.0, 0.0, 0.0, 0.0, 0.0, 1.751028844591416E9, 0.0, 2025-06-27 14:54:04.591
68.0, 3236.3984866617307, 18372.753962606665, -10211.662675340494, 0.0, 0.0, 0.0, 0.0, 0.0, 0.018000000000000002, -0.012, -1.002, 192.0, 0.0, 0.0, 0.0, 0.0, 0.0, 0.0, 0.0, 0.0, 0.0, 1.751028844595398E9, 0.0, 2025-06-27 14:54:04.595
69.0, 3136.5755959243293, 18372.35163120647, -10100.261580975244, 0.0, 0.0, 0.0, 0.0, 0.0, 0.018000000000000002, -0.012, -1.002, 192.0, 0.0, 0.0, 0.0, 0.0, 0.0, 0.0, 0.0, 0.0, 0.0, 1.751028844599415E9, 0.0, 2025-06-27 14:54:04.599
70.0, 3056.399888563143, 18356.8842240434, -10045.008068681725, 0.0, 0.0, 0.0, 0.0, 0.0, 0.018000000000000002, -0.012, -1.002, 192.0, 0.0, 0.0, 0.0, 0.0, 0.0, 0.0, 0.0, 0.0, 0.0, 1.75102884460344E9, 0.0, 2025-06-27 14:54:04.603
71.0, 3129.423037698631, 18352.10095072996, -10153.391677545509, 0.0, 0.0, 0.0, 0.0, 0.0, 0.018000000000000002, -0.012, -1.002, 192.0, 0.0, 0.0, 0.0, 0.0, 0.0, 0.0, 0.0, 0.0, 0.0, 1.751028844607491E9, 0.0, 2025-06-27 14:54:04.607
72.0, 3251.26239672451, 18363.656802613354, -10263.786943410272, 0.0, 0.0, 0.0, 0.0, 0.0, 0.018000000000000002, -0.012, -1.002, 192.0, 0.0, 0.0, 0.0, 0.0, 0.0, 0.0, 0.0, 0.0, 0.0, 1.751028844612471E9, 0.0, 2025-06-27 14:54:04.612
73.0, 3230.8329022923594, 18357.577128121513, -10227.621820881584, 0.0, 0.0, 0.0, 0.0, 0.0, 0.018000000000000002, -0.012, -1.002, 192.0, 0.0, 0.0, 0.0, 0.0, 0.0, 0.0, 0.0, 0.0, 0.0, 1.751028844615486E9, 0.0, 2025-06-27 14:54:04.615
74.0, 3060.6020165207406, 18303.083575139473, -10065.728135791795, 0.0, 0.0, 0.0, 0.0, 0.0, 0.018000000000000002, -0.012, -1.002, 192.0, 0.0, 0.0, 0.0, 0.0, 0.0, 0.0, 0.0, 0.0, 0.0, 1.751028844619475E9, 0.0, 2025-06-27 14:54:04.619
75.0, 3025.9344608705596, 18331.559697575536, -10028.154853362425, 0.0, 0.0, 0.0, 0.0, 0.0, 0.014, -0.012, -1.004, 192.0, 0.0, 112.0, 255.0, 160.0, 224.0, 160.0, 0.0, 0.0, 0.0, 1.751028844623596E9, 0.0, 2025-06-27 14:54:04.623
76.0, 3135.167436023645, 18390.41184072636, -10155.850369435593, 0.0, 0.0, 0.0, 0.0, 0.0, 0.014, -0.012, -1.004, 192.0, 0.0, 0.0, 0.0, 0.0, 0.0, 0.0, 0.0, 0.0, 0.0, 1.751028844627501E9, 0.0, 2025-06-27 14:54:04.627
77.0, 3225.177910945167, 18378.699526631775, -10254.153341550034, 0.0, 0.0, 0.0, 0.0, 0.0, 0.014, -0.012, -1.004, 192.0, 0.0, 0.0, 0.0, 0.0, 0.0, 0.0, 0.0, 0.0, 0.0, 1.751028844631496E9, 0.0, 2025-06-27 14:54:04.631
78.0, 3245.585053632862, 18351.363343162935, -10247.090190302157, 0.0, 0.0, 0.0, 0.0, 0.0, 0.014, -0.012, -1.004, 192.0, 0.0, 0.0, 0.0, 0.0, 0.0, 0.0, 0.0, 0.0, 0.0, 1.751028844635485E9, 0.0, 2025-06-27 14:54:04.635
79.0, 3097.3482844052655, 18347.071808227516, -10097.668778618428, 0.0, 0.0, 0.0, 0.0, 0.0, 0.014, -0.012, -1.004, 192.0, 0.0, 0.0, 0.0, 0.0, 0.0, 0.0, 0.0, 0.0, 0.0, 1.751028844640534E9, 0.0, 2025-06-27 14:54:04.640
80.0, 3002.4874809369426, 18344.143729703872, -10029.473606285288, 0.0, 0.0, 0.0, 0.0, 0.0, 0.014, -0.012, -1.004, 192.0, 0.0, 0.0, 0.0, 0.0, 0.0, 0.0, 0.0, 0.0, 0.0, 1.751028844643521E9, 0.0, 2025-06-27 14:54:04.643
81.0, 3110.04407525588, 18347.6306018389, -10154.710430468373, 0.0, 0.0, 0.0, 0.0, 0.0, 0.014, -0.012, -1.004, 192.0, 0.0, 0.0, 0.0, 0.0, 0.0, 0.0, 0.0, 0.0, 0.0, 1.75102884464754E9, 0.0, 2025-06-27 14:54:04.647
82.0, 3220.238175420544, 18384.06394530105, -10250.711172903917, 0.0, 0.0, 0.0, 0.0, 0.0, 0.014, -0.012, -1.004, 192.0, 0.0, 0.0, 0.0, 0.0, 0.0, 0.0, 0.0, 0.0, 0.0, 1.751028844651513E9, 0.0, 2025-06-27 14:54:04.651
83.0, 3202.5355938119405, 18342.48970061418, -10224.537280146753, 0.0, 0.0, 0.0, 0.0, 0.0, 0.014, -0.012, -1.004, 192.0, 0.0, 0.0, 0.0, 0.0, 0.0, 0.0, 0.0, 0.0, 0.0, 1.751028844656563E9, 0.0, 2025-06-27 14:54:04.656
84.0, 3071.487316070475, 18309.230304864683, -10088.705729091851, 0.0, 0.0, 0.0, 0.0, 0.0, 0.014, -0.012, -1.004, 192.0, 0.0, 0.0, 0.0, 0.0, 0.0, 0.0, 0.0, 0.0, 0.0, 1.751028844660541E9, 0.0, 2025-06-27 14:54:04.660
85.0, 3028.2813940383667, 18345.328372160002, -10048.159664649924, 0.0, 0.0, 0.0, 0.0, 0.0, 0.018000000000000002, -0.01, -1.008, 192.0, 0.0, 144.0, 255.0, 176.0, 224.0, 128.0, 0.0, 0.0, 0.0, 1.751028844663558E9, 0.0, 2025-06-27 14:54:04.663
86.0, 3099.9857902509916, 18363.768561335633, -10149.480122265832, 0.0, 0.0, 0.0, 0.0, 0.0, 0.018000000000000002, -0.01, -1.008, 192.0, 0.0, 0.0, 0.0, 0.0, 0.0, 0.0, 0.0, 0.0, 0.0, 1.75102884466857E9, 0.0, 2025-06-27 14:54:04.668
87.0, 3207.4529775921083, 18366.003735781163, -10255.650908428539, 0.0, 0.0, 0.0, 0.0, 0.0, 0.018000000000000002, -0.01, -1.008, 192.0, 0.0, 0.0, 0.0, 0.0, 0.0, 0.0, 0.0, 0.0, 0.0, 1.751028844671598E9, 0.0, 2025-06-27 14:54:04.671
88.0, 3197.841727476326, 18344.747226804164, -10217.898812043526, 0.0, 0.0, 0.0, 0.0, 0.0, 0.018000000000000002, -0.01, -1.008, 192.0, 0.0, 0.0, 0.0, 0.0, 0.0, 0.0, 0.0, 0.0, 0.0, 1.751028844674599E9, 0.0, 2025-06-27 14:54:04.674
89.0, 3071.442612581565, 18326.99994170665, -10087.923418035916, 0.0, 0.0, 0.0, 0.0, 0.0, 0.018000000000000002, -0.01, -1.008, 192.0, 0.0, 0.0, 0.0, 0.0, 0.0, 0.0, 0.0, 0.0, 0.0, 1.751028844679612E9, 0.0, 2025-06-27 14:54:04.679
90.0, 2984.539030139331, 18321.367302103914, -10019.661190469407, 0.0, 0.0, 0.0, 0.0, 0.0, 0.018000000000000002, -0.01, -1.008, 192.0, 0.0, 0.0, 0.0, 0.0, 0.0, 0.0, 0.0, 0.0, 0.0, 1.751028844683593E9, 0.0, 2025-06-27 14:54:04.683
91.0, 3081.2550283974447, 18351.832729796497, -10137.09725583759, 0.0, 0.0, 0.0, 0.0, 0.0, 0.018000000000000002, -0.01, -1.008, 192.0, 0.0, 0.0, 0.0, 0.0, 0.0, 0.0, 0.0, 0.0, 0.0, 1.75102884468766E9, 0.0, 2025-06-27 14:54:04.687
92.0, 3200.948619955614, 18349.30698267305, -10255.002707839336, 0.0, 0.0, 0.0, 0.0, 0.0, 0.018000000000000002, -0.01, -1.008, 192.0, 0.0, 0.0, 0.0, 0.0, 0.0, 0.0, 0.0, 0.0, 0.0, 1.751028844691676E9, 0.0, 2025-06-27 14:54:04.691
93.0, 3206.0448176914238, 18348.412912894837, -10223.039713268246, 0.0, 0.0, 0.0, 0.0, 0.0, 0.018000000000000002, -0.01, -1.008, 192.0, 0.0, 0.0, 0.0, 0.0, 0.0, 0.0, 0.0, 0.0, 0.0, 1.75102884469665E9, 0.0, 2025-06-27 14:54:04.696
94.0, 3071.777888748394, 18331.671456297812, -10093.690168105384, 0.0, 0.0, 0.0, 0.0, 0.0, 0.018000000000000002, -0.01, -1.008, 192.0, 0.0, 0.0, 0.0, 0.0, 0.0, 0.0, 0.0, 0.0, 0.0, 1.751028844699693E9, 0.0, 2025-06-27 14:54:04.699
95.0, 2981.476841148954, 18314.70648225623, -10032.804016209127, 0.0, 0.0, 0.0, 0.0, 0.0, 0.014, -0.012, -1.01, 192.0, 0.0, 112.0, 255.0, 160.0, 224.0, 112.0, 0.0, 0.0, 0.0, 1.751028844703681E9, 0.0, 2025-06-27 14:54:04.703
96.0, 3066.9275602015928, 18335.784177277586, -10126.793101643694, 0.0, 0.0, 0.0, 0.0, 0.0, 0.014, -0.012, -1.01, 192.0, 0.0, 0.0, 0.0, 0.0, 0.0, 0.0, 0.0, 0.0, 0.0, 1.751028844708698E9, 0.0, 2025-06-27 14:54:04.708
97.0, 3196.165346642178, 18364.26029971365, -10242.396323966543, 0.0, 0.0, 0.0, 0.0, 0.0, 0.014, -0.012, -1.01, 192.0, 0.0, 0.0, 0.0, 0.0, 0.0, 0.0, 0.0, 0.0, 0.0, 1.751028844711685E9, 0.0, 2025-06-27 14:54:04.711
98.0, 3185.749433726005, 18345.216613437726, -10216.781224820761, 0.0, 0.0, 0.0, 0.0, 0.0, 0.014, -0.012, -1.01, 192.0, 0.0, 0.0, 0.0, 0.0, 0.0, 0.0, 0.0, 0.0, 0.0, 1.751028844715672E9, 0.0, 2025-06-27 14:54:04.715
99.0, 3055.505818784931, 18317.232229379682, -10089.353929681056, 0.0, 0.0, 0.0, 0.0, 0.0, 0.014, -0.012, -1.01, 192.0, 0.0, 0.0, 0.0, 0.0, 0.0, 0.0, 0.0, 0.0, 0.0, 1.751028844719705E9, 0.0, 2025-06-27 14:54:04.719
100.0, 2982.572076627264, 18329.458633596736, -10024.98090564977, 0.0, 0.0, 0.0, 0.0, 0.0, 0.014, -0.012, -1.01, 192.0, 0.0, 0.0, 0.0, 0.0, 0.0, 0.0, 0.0, 0.0, 0.0, 1.751028844724702E9, 0.0, 2025-06-27 14:54:04.724
101.0, 3067.8663334687158, 18353.5314623751, -10131.039933090202, 0.0, 0.0, 0.0, 0.0, 0.0, 0.014, -0.012, -1.01, 192.0, 0.0, 0.0, 0.0, 0.0, 0.0, 0.0, 0.0, 0.0, 0.0, 1.751028844727703E9, 0.0, 2025-06-27 14:54:04.727
102.0, 3192.3431983403207, 18363.030953768608, -10247.738390891362, 0.0, 0.0, 0.0, 0.0, 0.0, 0.014, -0.012, -1.01, 192.0, 0.0, 0.0, 0.0, 0.0, 0.0, 0.0, 0.0, 0.0, 0.0, 1.751028844730708E9, 0.0, 2025-06-27 14:54:04.730
103.0, 3182.9778174135467, 18335.24773541066, -10218.032922510258, 0.0, 0.0, 0.0, 0.0, 0.0, 0.014, -0.012, -1.01, 192.0, 0.0, 0.0, 0.0, 0.0, 0.0, 0.0, 0.0, 0.0, 0.0, 1.751028844735737E9, 0.0, 2025-06-27 14:54:04.735
104.0, 3049.403792548632, 18310.750223487645, -10088.2810459472, 0.0, 0.0, 0.0, 0.0, 0.0, 0.014, -0.012, -1.01, 192.0, 0.0, 0.0, 0.0, 0.0, 0.0, 0.0, 0.0, 0.0, 0.0, 1.751028844739726E9, 0.0, 2025-06-27 14:54:04.739
105.0, 2972.245570688912, 18323.78129050509, -10022.812786437606, 0.0, 0.0, 0.0, 0.0, 0.0, 0.02, -0.008, -1.01, 192.0, 0.0, 160.0, 255.0, 192.0, 224.0, 112.0, 0.0, 0.0, 0.0, 1.751028844743751E9, 0.0, 2025-06-27 14:54:04.743
106.0, 3059.2385601089672, 18348.614078594932, -10131.2410987903, 0.0, 0.0, 0.0, 0.0, 0.0, 0.02, -0.008, -1.01, 192.0, 0.0, 0.0, 0.0, 0.0, 0.0, 0.0, 0.0, 0.0, 0.0, 1.751028844747751E9, 0.0, 2025-06-27 14:54:04.747
107.0, 3186.5988000153066, 18355.610174609446, -10252.07462931569, 0.0, 0.0, 0.0, 0.0, 0.0, 0.02, -0.008, -1.01, 192.0, 0.0, 0.0, 0.0, 0.0, 0.0, 0.0, 0.0, 0.0, 0.0, 1.751028844752774E9, 0.0, 2025-06-27 14:54:04.752
108.0, 3181.457898790586, 18331.514994086625, -10216.334189931655, 0.0, 0.0, 0.0, 0.0, 0.0, 0.02, -0.008, -1.01, 192.0, 0.0, 0.0, 0.0, 0.0, 0.0, 0.0, 0.0, 0.0, 0.0, 1.751028844755756E9, 0.0, 2025-06-27 14:54:04.755
109.0, 3049.8731791821933, 18317.05341542404, -10086.068223246124, 0.0, 0.0, 0.0, 0.0, 0.0, 0.02, -0.008, -1.01, 192.0, 0.0, 0.0, 0.0, 0.0, 0.0, 0.0, 0.0, 0.0, 0.0, 1.751028844758831E9, 0.0, 2025-06-27 14:54:04.758
110.0, 2965.249474674401, 18314.751185745143, -10022.857489926517, 0.0, 0.0, 0.0, 0.0, 0.0, 0.02, -0.008, -1.01, 192.0, 0.0, 0.0, 0.0, 0.0, 0.0, 0.0, 0.0, 0.0, 0.0, 1.751028844763778E9, 0.0, 2025-06-27 14:54:04.763
111.0, 3052.9577199170258, 18341.68503781379, -10126.211956287856, 0.0, 0.0, 0.0, 0.0, 0.0, 0.02, -0.008, -1.01, 192.0, 0.0, 0.0, 0.0, 0.0, 0.0, 0.0, 0.0, 0.0, 0.0, 1.751028844767804E9, 0.0, 2025-06-27 14:54:04.767
112.0, 3178.1498406112005, 18357.39831416587, -10242.955117577925, 0.0, 0.0, 0.0, 0.0, 0.0, 0.02, -0.008, -1.01, 192.0, 0.0, 0.0, 0.0, 0.0, 0.0, 0.0, 0.0, 0.0, 0.0, 1.751028844771793E9, 0.0, 2025-06-27 14:54:04.771
113.0, 3167.264541061466, 18330.665627797323, -10213.383759663553, 0.0, 0.0, 0.0, 0.0, 0.0, 0.02, -0.008, -1.01, 192.0, 0.0, 0.0, 0.0, 0.0, 0.0, 0.0, 0.0, 0.0, 0.0, 1.751028844775827E9, 0.0, 2025-06-27 14:54:04.775
114.0, 3040.239577321956, 18317.075767168495, -10080.122659221013, 0.0, 0.0, 0.0, 0.0, 0.0, 0.02, -0.008, -1.01, 192.0, 0.0, 0.0, 0.0, 0.0, 0.0, 0.0, 0.0, 0.0, 0.0, 1.751028844779818E9, 0.0, 2025-06-27 14:54:04.779
115.0, 2958.0298612153365, 18322.596648048955, -10016.17431833438, 0.0, 0.0, 0.0, 0.0, 0.0, 0.02, -0.01, -1.014, 192.0, 0.0, 160.0, 255.0, 176.0, 224.0, 80.0, 0.0, 0.0, 0.0, 1.751028844783843E9, 0.0, 2025-06-27 14:54:04.783
116.0, 3044.084077368269, 18336.4770813557, -10129.251793533778, 0.0, 0.0, 0.0, 0.0, 0.0, 0.02, -0.01, -1.014, 192.0, 0.0, 0.0, 0.0, 0.0, 0.0, 0.0, 0.0, 0.0, 0.0, 1.75102884478688E9, 0.0, 2025-06-27 14:54:04.786
117.0, 3173.6124364867733, 18345.686000071288, -10243.826835611682, 0.0, 0.0, 0.0, 0.0, 0.0, 0.02, -0.01, -1.014, 192.0, 0.0, 0.0, 0.0, 0.0, 0.0, 0.0, 0.0, 0.0, 0.0, 1.751028844791855E9, 0.0, 2025-06-27 14:54:04.791
118.0, 3173.1877533421225, 18329.05630219654, -10213.763739319294, 0.0, 0.0, 0.0, 0.0, 0.0, 0.02, -0.01, -1.014, 192.0, 0.0, 0.0, 0.0, 0.0, 0.0, 0.0, 0.0, 0.0, 0.0, 1.751028844795861E9, 0.0, 2025-06-27 14:54:04.795
119.0, 3051.7060222275286, 18326.217630650717, -10085.464726145832, 0.0, 0.0, 0.0, 0.0, 0.0, 0.02, -0.01, -1.014, 192.0, 0.0, 0.0, 0.0, 0.0, 0.0, 0.0, 0.0, 0.0, 0.0, 1.751028844799859E9, 0.0, 2025-06-27 14:54:04.799
120.0, 2968.7810502983393, 18320.92026721481, -10021.069350370091, 0.0, 0.0, 0.0, 0.0, 0.0, 0.02, -0.01, -1.014, 192.0, 0.0, 0.0, 0.0, 0.0, 0.0, 0.0, 0.0, 0.0, 0.0, 1.751028844803879E9, 0.0, 2025-06-27 14:54:04.803
121.0, 3032.148245829135, 18335.560659833034, -10122.590973686096, 0.0, 0.0, 0.0, 0.0, 0.0, 0.02, -0.01, -1.014, 192.0, 0.0, 0.0, 0.0, 0.0, 0.0, 0.0, 0.0, 0.0, 0.0, 1.751028844807897E9, 0.0, 2025-06-27 14:54:04.807
122.0, 3167.130430594734, 18357.331258932503, -10256.41086774002, 0.0, 0.0, 0.0, 0.0, 0.0, 0.02, -0.01, -1.014, 192.0, 0.0, 0.0, 0.0, 0.0, 0.0, 0.0, 0.0, 0.0, 0.0, 1.751028844810952E9, 0.0, 2025-06-27 14:54:04.810
123.0, 3167.1974858281, 18336.72295054471, -10234.282640729267, 0.0, 0.0, 0.0, 0.0, 0.0, 0.02, -0.01, -1.014, 192.0, 0.0, 0.0, 0.0, 0.0, 0.0, 0.0, 0.0, 0.0, 0.0, 1.751028844814981E9, 0.0, 2025-06-27 14:54:04.814
124.0, 3034.3163650413, 18312.650121766346, -10083.363662167032, 0.0, 0.0, 0.0, 0.0, 0.0, 0.024, -0.006, -1.014, 192.0, 0.0, 192.0, 255.0, 208.0, 224.0, 80.0, 0.0, 0.0, 0.0, 1.751028844819027E9, 0.0, 2025-06-27 14:54:04.819
125.0, 2963.081355462236, 18319.91443871432, -10012.396873521433, 0.0, 0.0, 0.0, 0.0, 0.0, 0.024, -0.006, -1.014, 192.0, 0.0, 0.0, 0.0, 0.0, 0.0, 0.0, 0.0, 0.0, 0.0, 1.751028844823954E9, 0.0, 2025-06-27 14:54:04.823
126.0, 3036.3503737867327, 18339.114587201428, -10114.231421259812, 0.0, 0.0, 0.0, 0.0, 0.0, 0.024, -0.006, -1.014, 192.0, 0.0, 0.0, 0.0, 0.0, 0.0, 0.0, 0.0, 0.0, 0.0, 1.75102884482794E9, 0.0, 2025-06-27 14:54:04.827
127.0, 3158.3461950237984, 18354.425532153313, -10236.87544308608, 0.0, 0.0, 0.0, 0.0, 0.0, 0.024, -0.006, -1.014, 192.0, 0.0, 0.0, 0.0, 0.0, 0.0, 0.0, 0.0, 0.0, 0.0, 1.751028844831942E9, 0.0, 2025-06-27 14:54:04.831
128.0, 3167.7115759505723, 18339.427511623802, -10215.618934109085, 0.0, 0.0, 0.0, 0.0, 0.0, 0.024, -0.006, -1.014, 192.0, 0.0, 0.0, 0.0, 0.0, 0.0, 0.0, 0.0, 0.0, 0.0, 1.751028844835982E9, 0.0, 2025-06-27 14:54:04.835
129.0, 3037.959699387515, 18310.258485109625, -10083.788345311683, 0.0, 0.0, 0.0, 0.0, 0.0, 0.024, -0.006, -1.014, 192.0, 0.0, 0.0, 0.0, 0.0, 0.0, 0.0, 0.0, 0.0, 0.0, 1.751028844839975E9, 0.0, 2025-06-27 14:54:04.839
130.0, 2950.0726401892475, 18300.75899371612, -10014.117957844492, 0.0, 0.0, 0.0, 0.0, 0.0, 0.024, -0.006, -1.014, 192.0, 0.0, 0.0, 0.0, 0.0, 0.0, 0.0, 0.0, 0.0, 0.0, 1.751028844842961E9, 0.0, 2025-06-27 14:54:04.842
131.0, 3021.5535189573193, 18331.559697575536, -10108.2858572347, 0.0, 0.0, 0.0, 0.0, 0.0, 0.024, -0.006, -1.014, 192.0, 0.0, 0.0, 0.0, 0.0, 0.0, 0.0, 0.0, 0.0, 0.0, 1.751028844846961E9, 0.0, 2025-06-27 14:54:04.846
132.0, 3150.7242501645387, 18352.6820960858, -10233.209756995411, 0.0, 0.0, 0.0, 0.0, 0.0, 0.024, -0.006, -1.014, 192.0, 0.0, 0.0, 0.0, 0.0, 0.0, 0.0, 0.0, 0.0, 0.0, 1.751028844852038E9, 0.0, 2025-06-27 14:54:04.852
133.0, 3165.3199392938545, 18334.778348777098, -10216.691817842939, 0.0, 0.0, 0.0, 0.0, 0.0, 0.024, -0.006, -1.014, 192.0, 0.0, 0.0, 0.0, 0.0, 0.0, 0.0, 0.0, 0.0, 0.0, 1.751028844856E9, 0.0, 2025-06-27 14:54:04.856
134.0, 3035.657469708618, 18319.355645102936, -10087.923418035916, 0.0, 0.0, 0.0, 0.0, 0.0, 0.02, -0.008, -1.016, 192.0, 0.0, 160.0, 255.0, 192.0, 224.0, 64.0, 0.0, 0.0, 0.0, 1.751028844860025E9, 0.0, 2025-06-27 14:54:04.860
135.0, 2952.665442546063, 18316.874601468397, -10014.02855086667, 0.0, 0.0, 0.0, 0.0, 0.0, 0.02, -0.008, -1.016, 192.0, 0.0, 0.0, 0.0, 0.0, 0.0, 0.0, 0.0, 0.0, 0.0, 1.751028844864037E9, 0.0, 2025-06-27 14:54:04.864
136.0, 3032.662335951607, 18337.34879938946, -10119.729950395817, 0.0, 0.0, 0.0, 0.0, 0.0, 0.02, -0.008, -1.016, 192.0, 0.0, 0.0, 0.0, 0.0, 0.0, 0.0, 0.0, 0.0, 0.0, 1.751028844867065E9, 0.0, 2025-06-27 14:54:04.867
137.0, 3149.1596280526674, 18356.63835485439, -10241.815178610705, 0.0, 0.0, 0.0, 0.0, 0.0, 0.02, -0.008, -1.016, 192.0, 0.0, 0.0, 0.0, 0.0, 0.0, 0.0, 0.0, 0.0, 0.0, 1.75102884487105E9, 0.0, 2025-06-27 14:54:04.871
138.0, 3155.4181165001532, 18336.566488333523, -10216.691817842939, 0.0, 0.0, 0.0, 0.0, 0.0, 0.02, -0.008, -1.016, 192.0, 0.0, 0.0, 0.0, 0.0, 0.0, 0.0, 0.0, 0.0, 0.0, 1.751028844875038E9, 0.0, 2025-06-27 14:54:04.875
139.0, 3025.59918470373, 18316.651084023844, -10074.646481829463, 0.0, 0.0, 0.0, 0.0, 0.0, 0.02, -0.008, -1.016, 192.0, 0.0, 0.0, 0.0, 0.0, 0.0, 0.0, 0.0, 0.0, 0.0, 1.751028844879098E9, 0.0, 2025-06-27 14:54:04.879
140.0, 2947.0998581766917, 18314.326502600492, -10008.105338586014, 0.0, 0.0, 0.0, 0.0, 0.0, 0.02, -0.008, -1.016, 192.0, 0.0, 0.0, 0.0, 0.0, 0.0, 0.0, 0.0, 0.0, 0.0, 1.751028844884084E9, 0.0, 2025-06-27 14:54:04.884
141.0, 3028.147283571635, 18335.53830808858, -10109.738720624295, 0.0, 0.0, 0.0, 0.0, 0.0, 0.02, -0.008, -1.016, 192.0, 0.0, 0.0, 0.0, 0.0, 0.0, 0.0, 0.0, 0.0, 0.0, 1.751028844888067E9, 0.0, 2025-06-27 14:54:04.888
142.0, 3150.7913053979046, 18347.02710473861, -10234.64026864055, 0.0, 0.0, 0.0, 0.0, 0.0, 0.02, -0.008, -1.016, 192.0, 0.0, 0.0, 0.0, 0.0, 0.0, 0.0, 0.0, 0.0, 0.0, 1.751028844892125E9, 0.0, 2025-06-27 14:54:04.892
143.0, 3164.224703815544, 18337.371151133913, -10227.465358670397, 0.0, 0.0, 0.0, 0.0, 0.0, 0.02, -0.008, -1.016, 192.0, 0.0, 0.0, 0.0, 0.0, 0.0, 0.0, 0.0, 0.0, 0.0, 1.75102884489509E9, 0.0, 2025-06-27 14:54:04.895
144.0, 3039.524321499386, 18316.449918323746, -10085.598836612564, 0.0, 0.0, 0.0, 0.0, 0.0, 0.02, -0.006, -1.014, 192.0, 0.0, 160.0, 255.0, 208.0, 224.0, 80.0, 0.0, 0.0, 0.0, 1.75102884489912E9, 0.0, 2025-06-27 14:54:04.899
145.0, 2956.2864251478227, 18309.56558103151, -10009.602905464519, 0.0, 0.0, 0.0, 0.0, 0.0, 0.02, -0.006, -1.014, 192.0, 0.0, 0.0, 0.0, 0.0, 0.0, 0.0, 0.0, 0.0, 0.0, 1.751028844903084E9, 0.0, 2025-06-27 14:54:04.903
146.0, 3026.0909230817465, 18338.019351723116, -10108.62113340153, 0.0, 0.0, 0.0, 0.0, 0.0, 0.02, -0.006, -1.014, 192.0, 0.0, 0.0, 0.0, 0.0, 0.0, 0.0, 0.0, 0.0, 0.0, 1.751028844907123E9, 0.0, 2025-06-27 14:54:04.907
147.0, 3147.684412918617, 18362.092180501484, -10240.474073943386, 0.0, 0.0, 0.0, 0.0, 0.0, 0.02, -0.006, -1.014, 192.0, 0.0, 0.0, 0.0, 0.0, 0.0, 0.0, 0.0, 0.0, 0.0, 1.751028844912167E9, 0.0, 2025-06-27 14:54:04.912
148.0, 3166.169305583156, 18342.53440410309, -10222.59267837914, 0.0, 0.0, 0.0, 0.0, 0.0, 0.02, -0.006, -1.014, 192.0, 0.0, 0.0, 0.0, 0.0, 0.0, 0.0, 0.0, 0.0, 0.0, 1.751028844916148E9, 0.0, 2025-06-27 14:54:04.916
149.0, 3036.305670297822, 18318.662741024822, -10078.535685364686, 0.0, 0.0, 0.0, 0.0, 0.0, 0.02, -0.006, -1.014, 192.0, 0.0, 0.0, 0.0, 0.0, 0.0, 0.0, 0.0, 0.0, 0.0, 1.751028844920154E9, 0.0, 2025-06-27 14:54:04.920
150.0, 2956.219369914457, 18320.85321198144, -10010.988713620749, 0.0, 0.0, 0.0, 0.0, 0.0, 0.02, -0.006, -1.014, 192.0, 0.0, 0.0, 0.0, 0.0, 0.0, 0.0, 0.0, 0.0, 0.0, 1.751028844923183E9, 0.0, 2025-06-27 14:54:04.923
151.0, 3034.003440618925, 18341.416816880326, -10116.354836983066, 0.0, 0.0, 0.0, 0.0, 0.0, 0.02, -0.006, -1.014, 192.0, 0.0, 0.0, 0.0, 0.0, 0.0, 0.0, 0.0, 0.0, 0.0, 1.75102884492716E9, 0.0, 2025-06-27 14:54:04.927
152.0, 3155.9992618559913, 18357.599479865967, -10237.143664019546, 0.0, 0.0, 0.0, 0.0, 0.0, 0.02, -0.006, -1.014, 192.0, 0.0, 0.0, 0.0, 0.0, 0.0, 0.0, 0.0, 0.0, 0.0, 1.751028844931177E9, 0.0, 2025-06-27 14:54:04.931
153.0, 3166.6833957056283, 18339.472215112713, -10219.754006833316, 0.0, 0.0, 0.0, 0.0, 0.0, 0.02, -0.006, -1.014, 192.0, 0.0, 0.0, 0.0, 0.0, 0.0, 0.0, 0.0, 0.0, 0.0, 1.751028844935177E9, 0.0, 2025-06-27 14:54:04.935
154.0, 3028.6390219496516, 18315.71231075672, -10079.56386560963, 0.0, 0.0, 0.0, 0.0, 0.0, 0.018000000000000002, -0.012, -1.004, 192.0, 0.0, 144.0, 255.0, 160.0, 224.0, 160.0, 0.0, 0.0, 0.0, 1.7510288449392E9, 0.0, 2025-06-27 14:54:04.939
155.0, 2956.1299629366354, 18318.550982302546, -10011.569858976587, 0.0, 0.0, 0.0, 0.0, 0.0, 0.018000000000000002, -0.012, -1.004, 192.0, 0.0, 0.0, 0.0, 0.0, 0.0, 0.0, 0.0, 0.0, 0.0, 1.751028844944207E9, 0.0, 2025-06-27 14:54:04.944
156.0, 3032.058838851314, 18338.95812499024, -10108.665836890441, 0.0, 0.0, 0.0, 0.0, 0.0, 0.018000000000000002, -0.012, -1.004, 192.0, 0.0, 0.0, 0.0, 0.0, 0.0, 0.0, 0.0, 0.0, 0.0, 1.75102884494821E9, 0.0, 2025-06-27 14:54:04.948
157.0, 3154.881674633226, 18352.749151319167, -10224.157300491011, 0.0, 0.0, 0.0, 0.0, 0.0, 0.018000000000000002, -0.012, -1.004, 192.0, 0.0, 0.0, 0.0, 0.0, 0.0, 0.0, 0.0, 0.0, 0.0, 1.751028844951208E9, 0.0, 2025-06-27 14:54:04.951
158.0, 3163.0847648483236, 18337.885241256387, -10215.462471897898, 0.0, 0.0, 0.0, 0.0, 0.0, 0.018000000000000002, -0.012, -1.004, 192.0, 0.0, 0.0, 0.0, 0.0, 0.0, 0.0, 0.0, 0.0, 0.0, 1.751028844955273E9, 0.0, 2025-06-27 14:54:04.955
159.0, 3038.0714581097914, 18321.993150948663, -10089.08570874759, 0.0, 0.0, 0.0, 0.0, 0.0, 0.018000000000000002, -0.012, -1.004, 192.0, 0.0, 0.0, 0.0, 0.0, 0.0, 0.0, 0.0, 0.0, 0.0, 1.751028844959309E9, 0.0, 2025-06-27 14:54:04.959
160.0, 2948.731535521929, 18323.75893876063, -10020.957591647815, 0.0, 0.0, 0.0, 0.0, 0.0, 0.018000000000000002, -0.012, -1.004, 192.0, 0.0, 0.0, 0.0, 0.0, 0.0, 0.0, 0.0, 0.0, 0.0, 1.751028844963219E9, 0.0, 2025-06-27 14:54:04.963
161.0, 3032.371763273688, 18345.14955820436, -10112.555040425665, 0.0, 0.0, 0.0, 0.0, 0.0, 0.018000000000000002, -0.012, -1.004, 192.0, 0.0, 0.0, 0.0, 0.0, 0.0, 0.0, 0.0, 0.0, 0.0, 1.751028844967241E9, 0.0, 2025-06-27 14:54:04.967
162.0, 3163.4870962485193, 18361.891014801386, -10229.231146482367, 0.0, 0.0, 0.0, 0.0, 0.0, 0.018000000000000002, -0.012, -1.004, 192.0, 0.0, 0.0, 0.0, 0.0, 0.0, 0.0, 0.0, 0.0, 0.0, 1.751028844972295E9, 0.0, 2025-06-27 14:54:04.972
163.0, 3173.7018434645947, 18346.647125082865, -10225.185480735956, 0.0, 0.0, 0.0, 0.0, 0.0, 0.018000000000000002, -0.012, -1.004, 192.0, 0.0, 0.0, 0.0, 0.0, 0.0, 0.0, 0.0, 0.0, 0.0, 1.751028844976284E9, 0.0, 2025-06-27 14:54:04.976
164.0, 3051.817780949805, 18323.647180038355, -10088.884543047494, 0.0, 0.0, 0.0, 0.0, 0.0, 0.014, -0.008, -1.0, 192.0, 0.0, 112.0, 255.0, 192.0, 224.0, 192.0, 0.0, 0.0, 0.0, 1.751028844979284E9, 0.0, 2025-06-27 14:54:04.979
165.0, 2965.4506403744986, 18324.653008538844, -10015.012027622704, 0.0, 0.0, 0.0, 0.0, 0.0, 0.014, -0.008, -1.0, 192.0, 0.0, 0.0, 0.0, 0.0, 0.0, 0.0, 0.0, 0.0, 0.0, 1.751028844983307E9, 0.0, 2025-06-27 14:54:04.983
166.0, 3033.5564057298193, 18344.993095993173, -10116.578354427618, 0.0, 0.0, 0.0, 0.0, 0.0, 0.014, -0.008, -1.0, 192.0, 0.0, 0.0, 0.0, 0.0, 0.0, 0.0, 0.0, 0.0, 0.0, 1.751028844987282E9, 0.0, 2025-06-27 14:54:04.987
167.0, 3154.9040263776815, 18354.671401342322, -10232.874480828581, 0.0, 0.0, 0.0, 0.0, 0.0, 0.014, -0.008, -1.0, 192.0, 0.0, 0.0, 0.0, 0.0, 0.0, 0.0, 0.0, 0.0, 0.0, 1.751028844991304E9, 0.0, 2025-06-27 14:54:04.991
168.0, 3179.0662621338683, 18342.601459336456, -10221.162166734, 0.0, 0.0, 0.0, 0.0, 0.0, 0.014, -0.008, -1.0, 192.0, 0.0, 0.0, 0.0, 0.0, 0.0, 0.0, 0.0, 0.0, 0.0, 1.751028844995316E9, 0.0, 2025-06-27 14:54:04.995
169.0, 3043.9723186459923, 18324.20597364974, -10086.314092435134, 0.0, 0.0, 0.0, 0.0, 0.0, 0.014, -0.008, -1.0, 192.0, 0.0, 0.0, 0.0, 0.0, 0.0, 0.0, 0.0, 0.0, 0.0, 1.751028844999324E9, 0.0, 2025-06-27 14:54:04.999
170.0, 2963.6177973291633, 18328.698674285257, -10020.756425947719, 0.0, 0.0, 0.0, 0.0, 0.0, 0.014, -0.008, -1.0, 192.0, 0.0, 0.0, 0.0, 0.0, 0.0, 0.0, 0.0, 0.0, 0.0, 1.75102884500433E9, 0.0, 2025-06-27 14:54:05.004
171.0, 3046.2969000693442, 18348.591726850478, -10115.125491038025, 0.0, 0.0, 0.0, 0.0, 0.0, 0.014, -0.008, -1.0, 192.0, 0.0, 0.0, 0.0, 0.0, 0.0, 0.0, 0.0, 0.0, 0.0, 1.751028845007338E9, 0.0, 2025-06-27 14:54:05.007
172.0, 3177.658102233184, 18360.706372345256, -10233.679143628973, 0.0, 0.0, 0.0, 0.0, 0.0, 0.014, -0.008, -1.0, 192.0, 0.0, 0.0, 0.0, 0.0, 0.0, 0.0, 0.0, 0.0, 0.0, 1.751028845011377E9, 0.0, 2025-06-27 14:54:05.011
173.0, 3175.7582039544827, 18349.30698267305, -10226.325419703177, 0.0, 0.0, 0.0, 0.0, 0.0, 0.014, -0.008, -1.0, 192.0, 0.0, 0.0, 0.0, 0.0, 0.0, 0.0, 0.0, 0.0, 0.0, 1.751028845015354E9, 0.0, 2025-06-27 14:54:05.015
174.0, 3033.019963862892, 18326.552906817546, -10096.528839651208, 0.0, 0.0, 0.0, 0.0, 0.0, 0.018000000000000002, -0.004, -1.008, 192.0, 0.0, 144.0, 255.0, 224.0, 224.0, 128.0, 0.0, 0.0, 0.0, 1.751028845019375E9, 0.0, 2025-06-27 14:54:05.019
175.0, 2950.050288444792, 18329.637447552377, -10031.820539453094, 0.0, 0.0, 0.0, 0.0, 0.0, 0.018000000000000002, -0.004, -1.008, 192.0, 0.0, 0.0, 0.0, 0.0, 0.0, 0.0, 0.0, 0.0, 0.0, 1.751028845023403E9, 0.0, 2025-06-27 14:54:05.023
176.0, 3046.3863070471657, 18356.280726943103, -10124.24500277579, 0.0, 0.0, 0.0, 0.0, 0.0, 0.018000000000000002, -0.004, -1.008, 192.0, 0.0, 0.0, 0.0, 0.0, 0.0, 0.0, 0.0, 0.0, 0.0, 1.751028845027379E9, 0.0, 2025-06-27 14:54:05.027
177.0, 3175.1323551097344, 18367.277785215116, -10240.585832665663, 0.0, 0.0, 0.0, 0.0, 0.0, 0.018000000000000002, -0.004, -1.008, 192.0, 0.0, 0.0, 0.0, 0.0, 0.0, 0.0, 0.0, 0.0, 0.0, 1.751028845032401E9, 0.0, 2025-06-27 14:54:05.032
178.0, 3178.7533377114937, 18356.72776183221, -10235.333172718665, 0.0, 0.0, 0.0, 0.0, 0.0, 0.018000000000000002, -0.004, -1.008, 192.0, 0.0, 0.0, 0.0, 0.0, 0.0, 0.0, 0.0, 0.0, 0.0, 1.75102884503539E9, 0.0, 2025-06-27 14:54:05.035
179.0, 3052.6447954946516, 18332.18554642028, -10100.350987953067, 0.0, 0.0, 0.0, 0.0, 0.0, 0.018000000000000002, -0.004, -1.008, 192.0, 0.0, 0.0, 0.0, 0.0, 0.0, 0.0, 0.0, 0.0, 0.0, 1.751028845039443E9, 0.0, 2025-06-27 14:54:05.039
180.0, 2981.2309719599452, 18329.235116152184, -10025.69616147234, 0.0, 0.0, 0.0, 0.0, 0.0, 0.018000000000000002, -0.004, -1.008, 192.0, 0.0, 0.0, 0.0, 0.0, 0.0, 0.0, 0.0, 0.0, 0.0, 1.751028845043425E9, 0.0, 2025-06-27 14:54:05.043
181.0, 3064.401813078143, 18356.347782176468, -10125.72021790984, 0.0, 0.0, 0.0, 0.0, 0.0, 0.018000000000000002, -0.004, -1.008, 192.0, 0.0, 0.0, 0.0, 0.0, 0.0, 0.0, 0.0, 0.0, 0.0, 1.751028845047446E9, 0.0, 2025-06-27 14:54:05.047
182.0, 3178.4851167780303, 18365.847273569976, -10248.654812414028, 0.0, 0.0, 0.0, 0.0, 0.0, 0.018000000000000002, -0.004, -1.008, 192.0, 0.0, 0.0, 0.0, 0.0, 0.0, 0.0, 0.0, 0.0, 0.0, 1.751028845051492E9, 0.0, 2025-06-27 14:54:05.051
183.0, 3183.6483697472063, 18351.49745362967, -10234.617916896095, 0.0, 0.0, 0.0, 0.0, 0.0, 0.022, -0.006, -1.008, 192.0, 0.0, 176.0, 255.0, 208.0, 224.0, 128.0, 0.0, 0.0, 0.0, 1.75102884505548E9, 0.0, 2025-06-27 14:54:05.055
184.0, 3046.632176236174, 18359.901709544865, -10104.128432766012, 0.0, 0.0, 0.0, 0.0, 0.0, 0.022, -0.006, -1.008, 192.0, 0.0, 0.0, 0.0, 0.0, 0.0, 0.0, 0.0, 0.0, 0.0, 1.751028845060484E9, 0.0, 2025-06-27 14:54:05.060
185.0, 2991.5798296427524, 18354.760808320145, -10033.563975520608, 0.0, 0.0, 0.0, 0.0, 0.0, 0.022, -0.006, -1.008, 192.0, 0.0, 0.0, 0.0, 0.0, 0.0, 0.0, 0.0, 0.0, 0.0, 1.751028845063494E9, 0.0, 2025-06-27 14:54:05.063
186.0, 3065.1617723896234, 18353.665572841834, -10125.094369065091, 0.0, 0.0, 0.0, 0.0, 0.0, 0.022, -0.006, -1.008, 192.0, 0.0, 0.0, 0.0, 0.0, 0.0, 0.0, 0.0, 0.0, 0.0, 1.751028845067583E9, 0.0, 2025-06-27 14:54:05.067
187.0, 3173.1877533421225, 18362.270994457125, -10248.475998458385, 0.0, 0.0, 0.0, 0.0, 0.0, 0.022, -0.006, -1.008, 192.0, 0.0, 0.0, 0.0, 0.0, 0.0, 0.0, 0.0, 0.0, 0.0, 1.751028845071522E9, 0.0, 2025-06-27 14:54:05.071
188.0, 3192.589067529329, 18365.579052636513, -10240.943460576947, 0.0, 0.0, 0.0, 0.0, 0.0, 0.022, -0.006, -1.008, 192.0, 0.0, 0.0, 0.0, 0.0, 0.0, 0.0, 0.0, 0.0, 0.0, 1.751028845076469E9, 0.0, 2025-06-27 14:54:05.076
189.0, 3068.3133683578217, 18352.793854808075, -10098.607551885552, 0.0, 0.0, 0.0, 0.0, 0.0, 0.022, -0.006, -1.008, 192.0, 0.0, 0.0, 0.0, 0.0, 0.0, 0.0, 0.0, 0.0, 0.0, 1.751028845079557E9, 0.0, 2025-06-27 14:54:05.079
190.0, 2994.954943055504, 18324.16127016083, -10019.08004511357, 0.0, 0.0, 0.0, 0.0, 0.0, 0.022, -0.006, -1.008, 192.0, 0.0, 0.0, 0.0, 0.0, 0.0, 0.0, 0.0, 0.0, 0.0, 1.751028845083598E9, 0.0, 2025-06-27 14:54:05.083
191.0, 3077.0976039287575, 18340.835671524488, -10117.740645139294, 0.0, 0.0, 0.0, 0.0, 0.0, 0.022, -0.006, -1.008, 192.0, 0.0, 0.0, 0.0, 0.0, 0.0, 0.0, 0.0, 0.0, 0.0, 1.751028845088563E9, 0.0, 2025-06-27 14:54:05.088
192.0, 3188.9010296942033, 18360.6840206008, -10243.491559444852, 0.0, 0.0, 0.0, 0.0, 0.0, 0.022, -0.006, -1.008, 192.0, 0.0, 0.0, 0.0, 0.0, 0.0, 0.0, 0.0, 0.0, 0.0, 1.751028845091584E9, 0.0, 2025-06-27 14:54:05.091
193.0, 3183.760128469483, 18365.06496251404, -10244.36327747861, 0.0, 0.0, 0.0, 0.0, 0.0, 0.02, -0.008, -1.006, 192.0, 0.0, 160.0, 255.0, 192.0, 224.0, 144.0, 0.0, 0.0, 0.0, 1.751028845094678E9, 0.0, 2025-06-27 14:54:05.094
194.0, 3053.6059205062297, 18377.760753364655, -10115.19254627139, 0.0, 0.0, 0.0, 0.0, 0.0, 0.02, -0.008, -1.006, 192.0, 0.0, 0.0, 0.0, 0.0, 0.0, 0.0, 0.0, 0.0, 0.0, 1.751028845100752E9, 0.0, 2025-06-27 14:54:05.100
195.0, 3002.1298530256577, 18337.97464823421, -10030.50178653023, 0.0, 0.0, 0.0, 0.0, 0.0, 0.02, -0.008, -1.006, 192.0, 0.0, 0.0, 0.0, 0.0, 0.0, 0.0, 0.0, 0.0, 0.0, 1.75102884510362E9, 0.0, 2025-06-27 14:54:05.103
196.0, 3070.9508742035478, 18339.740436046177, -10121.965124841348, 0.0, 0.0, 0.0, 0.0, 0.0, 0.02, -0.008, -1.006, 192.0, 0.0, 0.0, 0.0, 0.0, 0.0, 0.0, 0.0, 0.0, 0.0, 1.751028845107586E9, 0.0, 2025-06-27 14:54:05.107
197.0, 3191.002093673002, 18373.603328895966, -10245.793789123749, 0.0, 0.0, 0.0, 0.0, 0.0, 0.02, -0.008, -1.006, 192.0, 0.0, 0.0, 0.0, 0.0, 0.0, 0.0, 0.0, 0.0, 0.0, 1.751028845111636E9, 0.0, 2025-06-27 14:54:05.111
198.0, 3228.7988935469266, 18361.511035145646, -10234.908489574014, 0.0, 0.0, 0.0, 0.0, 0.0, 0.02, -0.008, -1.006, 192.0, 0.0, 0.0, 0.0, 0.0, 0.0, 0.0, 0.0, 0.0, 0.0, 1.751028845116794E9, 0.0, 2025-06-27 14:54:05.116
199.0, 3096.2306971825, 18327.402273106847, -10101.736796109295, 0.0, 0.0, 0.0, 0.0, 0.0, 0.02, -0.008, -1.006, 192.0, 0.0, 0.0, 0.0, 0.0, 0.0, 0.0, 0.0, 0.0, 0.0, 1.751028845119584E9, 0.0, 2025-06-27 14:54:05.119
200.0, 2992.4291959320544, 18326.932886473285, -10028.579536507075, 0.0, 0.0, 0.0, 0.0, 0.0, 0.02, -0.008, -1.006, 192.0, 0.0, 0.0, 0.0, 0.0, 0.0, 0.0, 0.0, 0.0, 0.0, 1.751028845122651E9, 0.0, 2025-06-27 14:54:05.122
201.0, 3055.0364321513694, 18362.807436324052, -10125.161424298456, 0.0, 0.0, 0.0, 0.0, 0.0, 0.02, -0.008, -1.006, 192.0, 0.0, 0.0, 0.0, 0.0, 0.0, 0.0, 0.0, 0.0, 0.0, 1.751028845127649E9, 0.0, 2025-06-27 14:54:05.127
202.0, 3187.068186648868, 18375.324413219027, -10246.2184722684, 0.0, 0.0, 0.0, 0.0, 0.0, 0.02, -0.008, -1.006, 192.0, 0.0, 0.0, 0.0, 0.0, 0.0, 0.0, 0.0, 0.0, 0.0, 1.751028845131615E9, 0.0, 2025-06-27 14:54:05.131
203.0, 3215.4772538515635, 18353.19618620827, -10242.150454777535, 0.0, 0.0, 0.0, 0.0, 0.0, 0.02, -0.01, -1.01, 192.0, 0.0, 160.0, 255.0, 176.0, 224.0, 112.0, 0.0, 0.0, 0.0, 1.751028845135648E9, 0.0, 2025-06-27 14:54:05.135
204.0, 3088.787566278883, 18335.426549366304, -10103.033197287703, 0.0, 0.0, 0.0, 0.0, 0.0, 0.02, -0.01, -1.01, 192.0, 0.0, 0.0, 0.0, 0.0, 0.0, 0.0, 0.0, 0.0, 0.0, 1.751028845139703E9, 0.0, 2025-06-27 14:54:05.139
205.0, 3002.666294892585, 18341.081540713494, -10032.625202253486, 0.0, 0.0, 0.0, 0.0, 0.0, 0.02, -0.01, -1.01, 192.0, 0.0, 0.0, 0.0, 0.0, 0.0, 0.0, 0.0, 0.0, 0.0, 1.751028845144813E9, 0.0, 2025-06-27 14:54:05.144
206.0, 3078.7739847629055, 18363.366229935436, -10130.503491223275, 0.0, 0.0, 0.0, 0.0, 0.0, 0.02, -0.01, -1.01, 192.0, 0.0, 0.0, 0.0, 0.0, 0.0, 0.0, 0.0, 0.0, 0.0, 1.751028845147712E9, 0.0, 2025-06-27 14:54:05.147
207.0, 3208.458806092597, 18359.633488611402, -10242.530434433274, 0.0, 0.0, 0.0, 0.0, 0.0, 0.02, -0.01, -1.01, 192.0, 0.0, 0.0, 0.0, 0.0, 0.0, 0.0, 0.0, 0.0, 0.0, 1.751028845150735E9, 0.0, 2025-06-27 14:54:05.150
208.0, 3223.0768469663676, 18348.792892550577, -10229.186442993456, 0.0, 0.0, 0.0, 0.0, 0.0, 0.02, -0.01, -1.01, 192.0, 0.0, 0.0, 0.0, 0.0, 0.0, 0.0, 0.0, 0.0, 0.0, 1.751028845155678E9, 0.0, 2025-06-27 14:54:05.155
209.0, 3093.168508192123, 18339.40515987935, -10104.32959846611, 0.0, 0.0, 0.0, 0.0, 0.0, 0.02, -0.01, -1.01, 192.0, 0.0, 0.0, 0.0, 0.0, 0.0, 0.0, 0.0, 0.0, 0.0, 1.751028845159743E9, 0.0, 2025-06-27 14:54:05.159
210.0, 3010.1988327740232, 18327.178755662295, -10033.943955176348, 0.0, 0.0, 0.0, 0.0, 0.0, 0.02, -0.01, -1.01, 192.0, 0.0, 0.0, 0.0, 0.0, 0.0, 0.0, 0.0, 0.0, 0.0, 1.751028845163701E9, 0.0, 2025-06-27 14:54:05.163
211.0, 3074.102470171746, 18345.06015122654, -10121.987476585804, 0.0, 0.0, 0.0, 0.0, 0.0, 0.02, -0.01, -1.01, 192.0, 0.0, 0.0, 0.0, 0.0, 0.0, 0.0, 0.0, 0.0, 0.0, 1.75102884516772E9, 0.0, 2025-06-27 14:54:05.167
212.0, 3196.433567575642, 18378.02897429812, -10252.3204985047, 0.0, 0.0, 0.0, 0.0, 0.0, 0.02, -0.01, -1.01, 192.0, 0.0, 0.0, 0.0, 0.0, 0.0, 0.0, 0.0, 0.0, 0.0, 1.75102884517183E9, 0.0, 2025-06-27 14:54:05.171
213.0, 3221.244003921033, 18356.995982765675, -10245.771437379293, 0.0, 0.0, 0.0, 0.0, 0.0, 0.02, -0.002, -1.008, 192.0, 0.0, 160.0, 255.0, 240.0, 224.0, 128.0, 0.0, 0.0, 0.0, 1.751028845175804E9, 0.0, 2025-06-27 14:54:05.175
214.0, 3083.3337406317883, 18325.904706228343, -10104.70957812185, 0.0, 0.0, 0.0, 0.0, 0.0, 0.02, -0.002, -1.008, 192.0, 0.0, 0.0, 0.0, 0.0, 0.0, 0.0, 0.0, 0.0, 0.0, 1.75102884517881E9, 0.0, 2025-06-27 14:54:05.178
215.0, 3008.4553967065094, 18328.162232418326, -10031.55231851963, 0.0, 0.0, 0.0, 0.0, 0.0, 0.02, -0.002, -1.008, 192.0, 0.0, 0.0, 0.0, 0.0, 0.0, 0.0, 0.0, 0.0, 0.0, 1.751028845183178E9, 0.0, 2025-06-27 14:54:05.183
216.0, 3080.56212431933, 18354.492587386678, -10126.301363265678, 0.0, 0.0, 0.0, 0.0, 0.0, 0.02, -0.002, -1.008, 192.0, 0.0, 0.0, 0.0, 0.0, 0.0, 0.0, 0.0, 0.0, 0.0, 1.751028845187944E9, 0.0, 2025-06-27 14:54:05.187
217.0, 3212.9962102170243, 18367.76952359313, -10243.938594333958, 0.0, 0.0, 0.0, 0.0, 0.0, 0.02, -0.002, -1.008, 192.0, 0.0, 0.0, 0.0, 0.0, 0.0, 0.0, 0.0, 0.0, 0.0, 1.751028845196772E9, 0.0, 2025-06-27 14:54:05.196
218.0, 3236.219672706088, 18347.943526261275, -10236.584870408162, 0.0, 0.0, 0.0, 0.0, 0.0, 0.02, -0.002, -1.008, 192.0, 0.0, 0.0, 0.0, 0.0, 0.0, 0.0, 0.0, 0.0, 0.0, 1.751028845196806E9, 0.0, 2025-06-27 14:54:05.196
219.0, 3110.3122961893437, 18326.083520183984, -10108.107043279058, 0.0, 0.0, 0.0, 0.0, 0.0, 0.02, -0.002, -1.008, 192.0, 0.0, 0.0, 0.0, 0.0, 0.0, 0.0, 0.0, 0.0, 0.0, 1.751028845200774E9, 0.0, 2025-06-27 14:54:05.200
220.0, 3016.5243764548754, 18335.96299123323, -10030.993524908248, 0.0, 0.0, 0.0, 0.0, 0.0, 0.02, -0.002, -1.008, 192.0, 0.0, 0.0, 0.0, 0.0, 0.0, 0.0, 0.0, 0.0, 0.0, 1.751028845203913E9, 0.0, 2025-06-27 14:54:05.203
221.0, 3074.683615527584, 18363.768561335633, -10123.596802186585, 0.0, 0.0, 0.0, 0.0, 0.0, 0.02, -0.002, -1.008, 192.0, 0.0, 0.0, 0.0, 0.0, 0.0, 0.0, 0.0, 0.0, 0.0, 1.75102884520761E9, 0.0, 2025-06-27 14:54:05.207
222.0, 3200.658047277695, 18371.21169223925, -10240.585832665663, 0.0, 0.0, 0.0, 0.0, 0.0, 0.02, -0.002, -1.008, 192.0, 0.0, 0.0, 0.0, 0.0, 0.0, 0.0, 0.0, 0.0, 0.0, 1.751028845212314E9, 0.0, 2025-06-27 14:54:05.212
223.0, 3224.3732481447755, 18361.35457293446, -10252.387553738065, 0.0, 0.0, 0.0, 0.0, 0.0, 0.02, 0.002, -1.014, 192.0, 0.0, 160.0, 0.0, 16.0, 224.0, 80.0, 0.0, 0.0, 0.0, 1.751028845215884E9, 0.0, 2025-06-27 14:54:05.215
224.0, 3094.7778337929053, 18332.58787782048, -10119.484081206809, 0.0, 0.0, 0.0, 0.0, 0.0, 0.02, 0.002, -1.014, 192.0, 0.0, 0.0, 0.0, 0.0, 0.0, 0.0, 0.0, 0.0, 0.0, 1.751028845219859E9, 0.0, 2025-06-27 14:54:05.219
225.0, 3020.2347660344562, 18346.937697760786, -10042.683487258373, 0.0, 0.0, 0.0, 0.0, 0.0, 0.02, 0.002, -1.014, 192.0, 0.0, 0.0, 0.0, 0.0, 0.0, 0.0, 0.0, 0.0, 0.0, 1.751028845224396E9, 0.0, 2025-06-27 14:54:05.224
226.0, 3092.4756041140085, 18366.450770670268, -10137.209014559867, 0.0, 0.0, 0.0, 0.0, 0.0, 0.02, 0.002, -1.014, 192.0, 0.0, 0.0, 0.0, 0.0, 0.0, 0.0, 0.0, 0.0, 0.0, 1.751028845228483E9, 0.0, 2025-06-27 14:54:05.228
227.0, 3215.387846873742, 18373.715087618242, -10244.989126323359, 0.0, 0.0, 0.0, 0.0, 0.0, 0.02, 0.002, -1.014, 192.0, 0.0, 0.0, 0.0, 0.0, 0.0, 0.0, 0.0, 0.0, 0.0, 1.751028845230931E9, 0.0, 2025-06-27 14:54:05.230
228.0, 3239.907710541214, 18373.580977151512, -10224.134948746556, 0.0, 0.0, 0.0, 0.0, 0.0, 0.02, 0.002, -1.014, 192.0, 0.0, 0.0, 0.0, 0.0, 0.0, 0.0, 0.0, 0.0, 0.0, 1.751028845234904E9, 0.0, 2025-06-27 14:54:05.234
229.0, 3120.9293748056148, 18342.802625036555, -10098.562848396641, 0.0, 0.0, 0.0, 0.0, 0.0, 0.02, 0.002, -1.014, 192.0, 0.0, 0.0, 0.0, 0.0, 0.0, 0.0, 0.0, 0.0, 0.0, 1.751028845238946E9, 0.0, 2025-06-27 14:54:05.238
230.0, 3026.3144405262997, 18328.72102602971, -10027.730170217774, 0.0, 0.0, 0.0, 0.0, 0.0, 0.02, 0.002, -1.014, 192.0, 0.0, 0.0, 0.0, 0.0, 0.0, 0.0, 0.0, 0.0, 0.0, 1.751028845244259E9, 0.0, 2025-06-27 14:54:05.244
231.0, 3076.7399760174726, 18346.557718105047, -10120.914592851948, 0.0, 0.0, 0.0, 0.0, 0.0, 0.02, 0.002, -1.014, 192.0, 0.0, 0.0, 0.0, 0.0, 0.0, 0.0, 0.0, 0.0, 0.0, 1.751028845247859E9, 0.0, 2025-06-27 14:54:05.247
232.0, 3190.1080238947898, 18386.612044168956, -10223.397341179532, 0.0, 0.0, 0.0, 0.0, 0.0, 0.02, 0.002, -1.014, 192.0, 0.0, 0.0, 0.0, 0.0, 0.0, 0.0, 0.0, 0.0, 0.0, 1.751028845252027E9, 0.0, 2025-06-27 14:54:05.252
233.0, 3220.908727754203, 18377.961919064754, -10260.456533486431, 0.0, 0.0, 0.0, 0.0, 0.0, 0.024, 0.0, -1.012, 192.0, 0.0, 192.0, 0.0, 0.0, 224.0, 96.0, 0.0, 0.0, 0.0, 1.751028845256054E9, 0.0, 2025-06-27 14:54:05.256
234.0, 3132.1275987777235, 18333.303133643047, -10138.840691905105, 0.0, 0.0, 0.0, 0.0, 0.0, 0.024, 0.0, -1.012, 192.0, 0.0, 0.0, 0.0, 0.0, 0.0, 0.0, 0.0, 0.0, 0.0, 1.751028845259131E9, 0.0, 2025-06-27 14:54:05.259
235.0, 3039.4572662660203, 18363.366229935436, -10048.964327450316, 0.0, 0.0, 0.0, 0.0, 0.0, 0.024, 0.0, -1.012, 192.0, 0.0, 0.0, 0.0, 0.0, 0.0, 0.0, 0.0, 0.0, 0.0, 1.751028845263073E9, 0.0, 2025-06-27 14:54:05.263
236.0, 3066.234656123478, 18320.361473603425, -10094.271313461222, 0.0, 0.0, 0.0, 0.0, 0.0, 0.024, 0.0, -1.012, 192.0, 0.0, 0.0, 0.0, 0.0, 0.0, 0.0, 0.0, 0.0, 0.0, 1.751028845267064E9, 0.0, 2025-06-27 14:54:05.267
237.0, 3165.498753249497, 18370.92111956133, -10219.776358577772, 0.0, 0.0, 0.0, 0.0, 0.0, 0.024, 0.0, -1.012, 192.0, 0.0, 0.0, 0.0, 0.0, 0.0, 0.0, 0.0, 0.0, 0.0, 1.751028845273184E9, 0.0, 2025-06-27 14:54:05.273
238.0, 3194.3548553412984, 18363.321526446525, -10217.094149243136, 0.0, 0.0, 0.0, 0.0, 0.0, 0.024, 0.0, -1.012, 192.0, 0.0, 0.0, 0.0, 0.0, 0.0, 0.0, 0.0, 0.0, 0.0, 1.751028845276054E9, 0.0, 2025-06-27 14:54:05.276
239.0, 3103.5397176193856, 18292.198275589737, -10076.054641730147, 0.0, 0.0, 0.0, 0.0, 0.0, 0.024, 0.0, -1.012, 192.0, 0.0, 0.0, 0.0, 0.0, 0.0, 0.0, 0.0, 0.0, 0.0, 1.751028845280121E9, 0.0, 2025-06-27 14:54:05.280
240.0, 3038.920824399093, 18314.125336900393, -10043.08581865857, 0.0, 0.0, 0.0, 0.0, 0.0, 0.024, 0.0, -1.012, 192.0, 0.0, 0.0, 0.0, 0.0, 0.0, 0.0, 0.0, 0.0, 0.0, 1.75102884528415E9, 0.0, 2025-06-27 14:54:05.284
241.0, 3074.348339360755, 18340.031008724094, -10109.112871779547, 0.0, 0.0, 0.0, 0.0, 0.0, 0.024, 0.0, -1.012, 192.0, 0.0, 0.0, 0.0, 0.0, 0.0, 0.0, 0.0, 0.0, 0.0, 1.751028845287707E9, 0.0, 2025-06-27 14:54:05.287
242.0, 3212.3480096278204, 18325.658837039333, -10222.100940001124, 0.0, 0.0, 0.0, 0.0, 0.0, 0.02, -0.006, -1.01, 192.0, 0.0, 160.0, 255.0, 208.0, 224.0, 112.0, 0.0, 0.0, 0.0, 1.751028845291047E9, 0.0, 2025-06-27 14:54:05.291
243.0, 3266.908617843225, 18389.271901759137, -10268.301995790243, 0.0, 0.0, 0.0, 0.0, 0.0, 0.02, -0.006, -1.01, 192.0, 0.0, 0.0, 0.0, 0.0, 0.0, 0.0, 0.0, 0.0, 0.0, 1.75102884529507E9, 0.0, 2025-06-27 14:54:05.295
244.0, 3114.8944038026816, 18374.34093646299, -10147.222596075844, 0.0, 0.0, 0.0, 0.0, 0.0, 0.02, -0.006, -1.01, 192.0, 0.0, 0.0, 0.0, 0.0, 0.0, 0.0, 0.0, 0.0, 0.0, 1.751028845299075E9, 0.0, 2025-06-27 14:54:05.299
245.0, 2981.54389638232, 18314.48296481168, -10015.190841578345, 0.0, 0.0, 0.0, 0.0, 0.0, 0.02, -0.006, -1.01, 192.0, 0.0, 0.0, 0.0, 0.0, 0.0, 0.0, 0.0, 0.0, 0.0, 1.751028845304103E9, 0.0, 2025-06-27 14:54:05.304
246.0, 3051.616615249707, 18326.754072517644, -10082.067260988624, 0.0, 0.0, 0.0, 0.0, 0.0, 0.02, -0.006, -1.01, 192.0, 0.0, 0.0, 0.0, 0.0, 0.0, 0.0, 0.0, 0.0, 0.0, 1.751028845308069E9, 0.0, 2025-06-27 14:54:05.308
247.0, 3211.453939849608, 18340.701561057755, -10234.081475029168, 0.0, 0.0, 0.0, 0.0, 0.0, 0.02, -0.006, -1.01, 192.0, 0.0, 0.0, 0.0, 0.0, 0.0, 0.0, 0.0, 0.0, 0.0, 1.751028845311152E9, 0.0, 2025-06-27 14:54:05.311
248.0, 3250.5694926463957, 18343.607287836945, -10248.096018802646, 0.0, 0.0, 0.0, 0.0, 0.0, 0.02, -0.006, -1.01, 192.0, 0.0, 0.0, 0.0, 0.0, 0.0, 0.0, 0.0, 0.0, 0.0, 1.751028845315101E9, 0.0, 2025-06-27 14:54:05.315
249.0, 3084.0936999432683, 18284.017537119096, -10093.80192682766, 0.0, 0.0, 0.0, 0.0, 0.0, 0.02, -0.006, -1.01, 192.0, 0.0, 0.0, 0.0, 0.0, 0.0, 0.0, 0.0, 0.0, 0.0, 1.751028845319152E9, 0.0, 2025-06-27 14:54:05.319
250.0, 2952.374869868144, 18304.469383295702, -10021.248164325734, 0.0, 0.0, 0.0, 0.0, 0.0, 0.02, -0.006, -1.01, 192.0, 0.0, 0.0, 0.0, 0.0, 0.0, 0.0, 0.0, 0.0, 0.0, 1.751028845323128E9, 0.0, 2025-06-27 14:54:05.323
251.0, 3099.13642396169, 18345.842462282475, -10117.137148039003, 0.0, 0.0, 0.0, 0.0, 0.0, 0.02, -0.006, -1.01, 192.0, 0.0, 0.0, 0.0, 0.0, 0.0, 0.0, 0.0, 0.0, 0.0, 1.751028845327042E9, 0.0, 2025-06-27 14:54:05.327
252.0, 3241.874664053281, 18400.157201308873, -10233.433274439963, 0.0, 0.0, 0.0, 0.0, 0.0, 0.016, -0.008, -1.008, 192.0, 0.0, 128.0, 255.0, 192.0, 224.0, 128.0, 0.0, 0.0, 0.0, 1.751028845331083E9, 0.0, 2025-06-27 14:54:05.331
253.0, 3235.3703064167867, 18339.494566857167, -10264.569254466207, 0.0, 0.0, 0.0, 0.0, 0.0, 0.016, -0.008, -1.008, 192.0, 0.0, 0.0, 0.0, 0.0, 0.0, 0.0, 0.0, 0.0, 0.0, 1.75102884533608E9, 0.0, 2025-06-27 14:54:05.336
254.0, 3120.9964300389806, 18335.180680177295, -10126.43547373241, 0.0, 0.0, 0.0, 0.0, 0.0, 0.016, -0.008, -1.008, 192.0, 0.0, 0.0, 0.0, 0.0, 0.0, 0.0, 0.0, 0.0, 0.0, 1.751028845339063E9, 0.0, 2025-06-27 14:54:05.339
255.0, 3005.5496699273194, 18325.837650994974, -10018.565954991098, 0.0, 0.0, 0.0, 0.0, 0.0, 0.016, -0.008, -1.008, 192.0, 0.0, 0.0, 0.0, 0.0, 0.0, 0.0, 0.0, 0.0, 0.0, 1.751028845343112E9, 0.0, 2025-06-27 14:54:05.343
0.0, 3070.2579701254335, 18345.037799482085, -10106.073034533625, 0.0, 0.0, 0.0, 0.0, 0.0, 0.016, -0.008, -1.008, 192.0, 0.0, 0.0, 0.0, 0.0, 0.0, 0.0, 0.0, 0.0, 0.0, 1.75102884534709E9, 0.0, 2025-06-27 14:54:05.347
1.0, 3210.515166582485, 18354.5819943645, -10258.824856141193, 0.0, 0.0, 0.0, 0.0, 0.0, 0.016, -0.008, -1.008, 192.0, 0.0, 0.0, 0.0, 0.0, 0.0, 0.0, 0.0, 0.0, 0.0, 1.751028845351131E9, 0.0, 2025-06-27 14:54:05.351
2.0, 3230.676440081172, 18338.91342150133, -10240.339963476654, 0.0, 0.0, 0.0, 0.0, 0.0, 0.016, -0.008, -1.008, 192.0, 0.0, 0.0, 0.0, 0.0, 0.0, 0.0, 0.0, 0.0, 0.0, 1.75102884535511E9, 0.0, 2025-06-27 14:54:05.355
3.0, 3096.8341942827933, 18321.412005592825, -10104.821336844128, 0.0, 0.0, 0.0, 0.0, 0.0, 0.016, -0.008, -1.008, 192.0, 0.0, 0.0, 0.0, 0.0, 0.0, 0.0, 0.0, 0.0, 0.0, 1.751028845359099E9, 0.0, 2025-06-27 14:54:05.359
4.0, 3024.1686730585902, 18339.852194768453, -10067.13629569248, 0.0, 0.0, 0.0, 0.0, 0.0, 0.016, -0.008, -1.008, 192.0, 0.0, 0.0, 0.0, 0.0, 0.0, 0.0, 0.0, 0.0, 0.0, 1.751028845364141E9, 0.0, 2025-06-27 14:54:05.364
5.0, 3082.909057487137, 18364.126189246916, -10134.236232547311, 0.0, 0.0, 0.0, 0.0, 0.0, 0.016, -0.008, -1.008, 192.0, 0.0, 0.0, 0.0, 0.0, 0.0, 0.0, 0.0, 0.0, 0.0, 1.751028845367166E9, 0.0, 2025-06-27 14:54:05.367
6.0, 3168.270369561955, 18357.800645566065, -10214.099015486123, 0.0, 0.0, 0.0, 0.0, 0.0, 0.014, -0.006, -1.01, 192.0, 0.0, 112.0, 255.0, 208.0, 224.0, 112.0, 0.0, 0.0, 0.0, 1.751028845371145E9, 0.0, 2025-06-27 14:54:05.371
7.0, 3192.5443640404183, 18333.705465043244, -10226.683047614462, 0.0, 0.0, 0.0, 0.0, 0.0, 0.014, -0.006, -1.01, 192.0, 0.0, 0.0, 0.0, 0.0, 0.0, 0.0, 0.0, 0.0, 0.0, 1.751028845375185E9, 0.0, 2025-06-27 14:54:05.375
8.0, 3141.761200637961, 18326.776424262098, -10139.95827912787, 0.0, 0.0, 0.0, 0.0, 0.0, 0.014, -0.006, -1.01, 192.0, 0.0, 0.0, 0.0, 0.0, 0.0, 0.0, 0.0, 0.0, 0.0, 1.751028845379263E9, 0.0, 2025-06-27 14:54:05.379
9.0, 3025.3309637702664, 18323.58012480499, -10052.853530985538, 0.0, 0.0, 0.0, 0.0, 0.0, 0.014, -0.006, -1.01, 192.0, 0.0, 0.0, 0.0, 0.0, 0.0, 0.0, 0.0, 0.0, 0.0, 1.751028845383207E9, 0.0, 2025-06-27 14:54:05.383
10.0, 3072.3590341042323, 18360.72872408971, -10130.548194712186, 0.0, 0.0, 0.0, 0.0, 0.0, 0.014, -0.006, -1.01, 192.0, 0.0, 0.0, 0.0, 0.0, 0.0, 0.0, 0.0, 0.0, 0.0, 1.751028845387185E9, 0.0, 2025-06-27 14:54:05.387
11.0, 3171.131392852234, 18371.01052653915, -10242.843358855649, 0.0, 0.0, 0.0, 0.0, 0.0, 0.014, -0.006, -1.01, 192.0, 0.0, 0.0, 0.0, 0.0, 0.0, 0.0, 0.0, 0.0, 0.0, 1.751028845392248E9, 0.0, 2025-06-27 14:54:05.392
12.0, 3238.812475062904, 18365.623756125424, -10248.990088580858, 0.0, 0.0, 0.0, 0.0, 0.0, 0.014, -0.006, -1.01, 192.0, 0.0, 0.0, 0.0, 0.0, 0.0, 0.0, 0.0, 0.0, 0.0, 1.751028845395235E9, 0.0, 2025-06-27 14:54:05.395
13.0, 3113.128615990712, 18331.067959197517, -10114.454938704364, 0.0, 0.0, 0.0, 0.0, 0.0, 0.014, -0.006, -1.01, 192.0, 0.0, 0.0, 0.0, 0.0, 0.0, 0.0, 0.0, 0.0, 0.0, 1.751028845399207E9, 0.0, 2025-06-27 14:54:05.399
14.0, 3019.40775148961, 18333.68311329879, -10043.219929125302, 0.0, 0.0, 0.0, 0.0, 0.0, 0.014, -0.006, -1.01, 192.0, 0.0, 0.0, 0.0, 0.0, 0.0, 0.0, 0.0, 0.0, 0.0, 1.751028845403218E9, 0.0, 2025-06-27 14:54:05.403
15.0, 3094.7778337929053, 18358.71706708873, -10137.231366304322, 0.0, 0.0, 0.0, 0.0, 0.0, 0.014, -0.006, -1.01, 192.0, 0.0, 0.0, 0.0, 0.0, 0.0, 0.0, 0.0, 0.0, 0.0, 1.751028845407222E9, 0.0, 2025-06-27 14:54:05.407
16.0, 3183.5366110249297, 18352.816206552532, -10242.888062344558, 0.0, 0.0, 0.0, 0.0, 0.0, 0.02, -0.004, -1.016, 192.0, 0.0, 160.0, 255.0, 224.0, 224.0, 64.0, 0.0, 0.0, 0.0, 1.751028845411236E9, 0.0, 2025-06-27 14:54:05.411
17.0, 3194.1536896412003, 18334.890107499374, -10246.486693201863, 0.0, 0.0, 0.0, 0.0, 0.0, 0.02, -0.004, -1.016, 192.0, 0.0, 0.0, 0.0, 0.0, 0.0, 0.0, 0.0, 0.0, 0.0, 1.75102884541525E9, 0.0, 2025-06-27 14:54:05.415
18.0, 3123.85745332926, 18355.073732742516, -10119.439377717898, 0.0, 0.0, 0.0, 0.0, 0.0, 0.02, -0.004, -1.016, 192.0, 0.0, 0.0, 0.0, 0.0, 0.0, 0.0, 0.0, 0.0, 0.0, 1.75102884542027E9, 0.0, 2025-06-27 14:54:05.420
19.0, 3039.3678592881993, 18342.86968026992, -10046.505635560232, 0.0, 0.0, 0.0, 0.0, 0.0, 0.02, -0.004, -1.016, 192.0, 0.0, 0.0, 0.0, 0.0, 0.0, 0.0, 0.0, 0.0, 0.0, 1.751028845423265E9, 0.0, 2025-06-27 14:54:05.423
20.0, 3066.301711356844, 18340.410988379837, -10113.583220670607, 0.0, 0.0, 0.0, 0.0, 0.0, 0.02, -0.004, -1.016, 192.0, 0.0, 0.0, 0.0, 0.0, 0.0, 0.0, 0.0, 0.0, 0.0, 1.751028845426352E9, 0.0, 2025-06-27 14:54:05.426
21.0, 3176.6075702437843, 18348.39056115038, -10230.59460289414, 0.0, 0.0, 0.0, 0.0, 0.0, 0.02, -0.004, -1.016, 192.0, 0.0, 0.0, 0.0, 0.0, 0.0, 0.0, 0.0, 0.0, 0.0, 1.751028845431272E9, 0.0, 2025-06-27 14:54:05.431
22.0, 3236.1079139838116, 18362.02512526812, -10250.912338604014, 0.0, 0.0, 0.0, 0.0, 0.0, 0.02, -0.004, -1.016, 192.0, 0.0, 0.0, 0.0, 0.0, 0.0, 0.0, 0.0, 0.0, 0.0, 1.751028845435274E9, 0.0, 2025-06-27 14:54:05.435
23.0, 3119.4094561826537, 18332.029084209094, -10119.305267251166, 0.0, 0.0, 0.0, 0.0, 0.0, 0.02, -0.004, -1.016, 192.0, 0.0, 0.0, 0.0, 0.0, 0.0, 0.0, 0.0, 0.0, 0.0, 1.751028845439396E9, 0.0, 2025-06-27 14:54:05.439
24.0, 3011.763454885895, 18316.941656701765, -10041.431789568876, 0.0, 0.0, 0.0, 0.0, 0.0, 0.02, -0.004, -1.016, 192.0, 0.0, 0.0, 0.0, 0.0, 0.0, 0.0, 0.0, 0.0, 0.0, 1.751028845443321E9, 0.0, 2025-06-27 14:54:05.443
25.0, 3057.852751952738, 18352.995020508173, -10116.153671282967, 0.0, 0.0, 0.0, 0.0, 0.0, 0.02, -0.004, -1.016, 192.0, 0.0, 0.0, 0.0, 0.0, 0.0, 0.0, 0.0, 0.0, 0.0, 1.751028845447339E9, 0.0, 2025-06-27 14:54:05.447
26.0, 3179.3791865562425, 18352.39152340788, -10236.137835519057, 0.0, 0.0, 0.0, 0.0, 0.0, 0.016, -0.01, -1.014, 192.0, 0.0, 128.0, 255.0, 176.0, 224.0, 80.0, 0.0, 0.0, 0.0, 1.751028845451328E9, 0.0, 2025-06-27 14:54:05.451
27.0, 3248.1108007563116, 18355.4313606538, -10253.818065383204, 0.0, 0.0, 0.0, 0.0, 0.0, 0.016, -0.01, -1.014, 192.0, 0.0, 0.0, 0.0, 0.0, 0.0, 0.0, 0.0, 0.0, 0.0, 1.751028845454358E9, 0.0, 2025-06-27 14:54:05.454
28.0, 3111.51929038993, 18338.511090101136, -10102.206182742857, 0.0, 0.0, 0.0, 0.0, 0.0, 0.016, -0.01, -1.014, 192.0, 0.0, 0.0, 0.0, 0.0, 0.0, 0.0, 0.0, 0.0, 0.0, 1.751028845459355E9, 0.0, 2025-06-27 14:54:05.459
29.0, 2999.6488093911184, 18313.9241712003, -10017.023684623682, 0.0, 0.0, 0.0, 0.0, 0.0, 0.016, -0.01, -1.014, 192.0, 0.0, 0.0, 0.0, 0.0, 0.0, 0.0, 0.0, 0.0, 0.0, 1.751028845463387E9, 0.0, 2025-06-27 14:54:05.463
30.0, 3053.0024234059365, 18341.01448548013, -10104.039025788192, 0.0, 0.0, 0.0, 0.0, 0.0, 0.016, -0.01, -1.014, 192.0, 0.0, 0.0, 0.0, 0.0, 0.0, 0.0, 0.0, 0.0, 0.0, 1.751028845467367E9, 0.0, 2025-06-27 14:54:05.467
31.0, 3178.3733580557537, 18355.58782286499, -10234.662620385006, 0.0, 0.0, 0.0, 0.0, 0.0, 0.016, -0.01, -1.014, 192.0, 0.0, 0.0, 0.0, 0.0, 0.0, 0.0, 0.0, 0.0, 0.0, 1.751028845471389E9, 0.0, 2025-06-27 14:54:05.471
32.0, 3218.673553308672, 18344.16608144833, -10244.318573989698, 0.0, 0.0, 0.0, 0.0, 0.0, 0.016, -0.01, -1.014, 192.0, 0.0, 0.0, 0.0, 0.0, 0.0, 0.0, 0.0, 0.0, 0.0, 1.751028845476401E9, 0.0, 2025-06-27 14:54:05.476
33.0, 3123.6339358847067, 18330.73268303069, -10108.487022934798, 0.0, 0.0, 0.0, 0.0, 0.0, 0.016, -0.01, -1.014, 192.0, 0.0, 0.0, 0.0, 0.0, 0.0, 0.0, 0.0, 0.0, 0.0, 1.751028845479388E9, 0.0, 2025-06-27 14:54:05.479
34.0, 3016.144396799135, 18324.049511438552, -10028.534833018164, 0.0, 0.0, 0.0, 0.0, 0.0, 0.016, -0.01, -1.014, 192.0, 0.0, 0.0, 0.0, 0.0, 0.0, 0.0, 0.0, 0.0, 0.0, 1.751028845482379E9, 0.0, 2025-06-27 14:54:05.482
35.0, 3049.8731791821933, 18333.81722376552, -10097.37820594051, 0.0, 0.0, 0.0, 0.0, 0.0, 0.016, -0.01, -1.014, 192.0, 0.0, 0.0, 0.0, 0.0, 0.0, 0.0, 0.0, 0.0, 0.0, 1.751028845486401E9, 0.0, 2025-06-27 14:54:05.486
36.0, 3161.0284043584356, 18335.001866221653, -10208.35461716111, 0.0, 0.0, 0.0, 0.0, 0.0, 0.016, -0.008, -1.006, 192.0, 0.0, 128.0, 255.0, 192.0, 224.0, 144.0, 0.0, 0.0, 0.0, 1.751028845491546E9, 0.0, 2025-06-27 14:54:05.491
37.0, 3245.5627018884065, 18359.25350895566, -10246.240824012855, 0.0, 0.0, 0.0, 0.0, 0.0, 0.016, -0.008, -1.006, 192.0, 0.0, 0.0, 0.0, 0.0, 0.0, 0.0, 0.0, 0.0, 0.0, 1.751028845495447E9, 0.0, 2025-06-27 14:54:05.495
38.0, 3055.595225762752, 18321.076729425997, -10087.319920935623, 0.0, 0.0, 0.0, 0.0, 0.0, 0.016, -0.008, -1.006, 192.0, 0.0, 0.0, 0.0, 0.0, 0.0, 0.0, 0.0, 0.0, 0.0, 1.751028845499459E9, 0.0, 2025-06-27 14:54:05.499
39.0, 2950.854951245183, 18312.761880488622, -10006.674826940874, 0.0, 0.0, 0.0, 0.0, 0.0, 0.016, -0.008, -1.006, 192.0, 0.0, 0.0, 0.0, 0.0, 0.0, 0.0, 0.0, 0.0, 0.0, 1.751028845503487E9, 0.0, 2025-06-27 14:54:05.503
40.0, 3079.556295818841, 18337.237040667183, -10103.346121710078, 0.0, 0.0, 0.0, 0.0, 0.0, 0.016, -0.008, -1.006, 192.0, 0.0, 0.0, 0.0, 0.0, 0.0, 0.0, 0.0, 0.0, 0.0, 1.751028845507451E9, 0.0, 2025-06-27 14:54:05.507
41.0, 3224.3732481447755, 18369.468256171735, -10250.55471069273, 0.0, 0.0, 0.0, 0.0, 0.0, 0.016, -0.008, -1.006, 192.0, 0.0, 0.0, 0.0, 0.0, 0.0, 0.0, 0.0, 0.0, 0.0, 1.751028845510502E9, 0.0, 2025-06-27 14:54:05.510
42.0, 3239.684193096661, 18352.212709452237, -10252.722829904895, 0.0, 0.0, 0.0, 0.0, 0.0, 0.016, -0.008, -1.006, 192.0, 0.0, 0.0, 0.0, 0.0, 0.0, 0.0, 0.0, 0.0, 0.0, 1.751028845514492E9, 0.0, 2025-06-27 14:54:05.514
43.0, 3091.603886080252, 18334.01838946562, -10107.48119443431, 0.0, 0.0, 0.0, 0.0, 0.0, 0.016, -0.008, -1.006, 192.0, 0.0, 0.0, 0.0, 0.0, 0.0, 0.0, 0.0, 0.0, 0.0, 1.751028845519494E9, 0.0, 2025-06-27 14:54:05.519
44.0, 2962.321396150756, 18301.496601283146, -9988.368748231978, 0.0, 0.0, 0.0, 0.0, 0.0, 0.016, -0.008, -1.006, 192.0, 0.0, 0.0, 0.0, 0.0, 0.0, 0.0, 0.0, 0.0, 0.0, 1.751028845523534E9, 0.0, 2025-06-27 14:54:05.523
45.0, 3015.6526584211183, 18326.754072517644, -10074.355909151544, 0.0, 0.0, 0.0, 0.0, 0.0, 0.018000000000000002, -0.008, -1.004, 192.0, 0.0, 144.0, 255.0, 192.0, 224.0, 160.0, 0.0, 0.0, 0.0, 1.75102884552751E9, 0.0, 2025-06-27 14:54:05.527
46.0, 3161.0954595918015, 18351.29628792957, -10228.202966237423, 0.0, 0.0, 0.0, 0.0, 0.0, 0.018000000000000002, -0.008, -1.004, 192.0, 0.0, 0.0, 0.0, 0.0, 0.0, 0.0, 0.0, 0.0, 0.0, 1.751028845531544E9, 0.0, 2025-06-27 14:54:05.531
47.0, 3227.726009813072, 18358.06886649953, -10240.541129176752, 0.0, 0.0, 0.0, 0.0, 0.0, 0.018000000000000002, -0.008, -1.004, 192.0, 0.0, 0.0, 0.0, 0.0, 0.0, 0.0, 0.0, 0.0, 0.0, 1.751028845535508E9, 0.0, 2025-06-27 14:54:05.535
48.0, 3117.688371859595, 18322.19431664876, -10106.363607211544, 0.0, 0.0, 0.0, 0.0, 0.0, 0.018000000000000002, -0.008, -1.004, 192.0, 0.0, 0.0, 0.0, 0.0, 0.0, 0.0, 0.0, 0.0, 0.0, 1.751028845538534E9, 0.0, 2025-06-27 14:54:05.538
49.0, 3009.3494664847217, 18325.971761461708, -10028.043094640148, 0.0, 0.0, 0.0, 0.0, 0.0, 0.018000000000000002, -0.008, -1.004, 192.0, 0.0, 0.0, 0.0, 0.0, 0.0, 0.0, 0.0, 0.0, 0.0, 1.751028845542605E9, 0.0, 2025-06-27 14:54:05.542
50.0, 3035.7468766864395, 18357.465369399237, -10121.875717863526, 0.0, 0.0, 0.0, 0.0, 0.0, 0.018000000000000002, -0.008, -1.004, 192.0, 0.0, 0.0, 0.0, 0.0, 0.0, 0.0, 0.0, 0.0, 0.0, 1.751028845547613E9, 0.0, 2025-06-27 14:54:05.547
51.0, 3159.6425962022063, 18361.265165956636, -10237.41188495301, 0.0, 0.0, 0.0, 0.0, 0.0, 0.018000000000000002, -0.008, -1.004, 192.0, 0.0, 0.0, 0.0, 0.0, 0.0, 0.0, 0.0, 0.0, 0.0, 1.751028845551619E9, 0.0, 2025-06-27 14:54:05.551
52.0, 3212.9291549836585, 18355.45371239826, -10243.513911189308, 0.0, 0.0, 0.0, 0.0, 0.0, 0.018000000000000002, -0.008, -1.004, 192.0, 0.0, 0.0, 0.0, 0.0, 0.0, 0.0, 0.0, 0.0, 0.0, 1.751028845555749E9, 0.0, 2025-06-27 14:54:05.555
53.0, 3050.9684146605036, 18305.944598429753, -10086.604665113053, 0.0, 0.0, 0.0, 0.0, 0.0, 0.018000000000000002, -0.008, -1.004, 192.0, 0.0, 0.0, 0.0, 0.0, 0.0, 0.0, 0.0, 0.0, 0.0, 1.751028845559653E9, 0.0, 2025-06-27 14:54:05.559
54.0, 2979.979274270448, 18324.854174238943, -10037.788455222662, 0.0, 0.0, 0.0, 0.0, 0.0, 0.018000000000000002, -0.008, -1.004, 192.0, 0.0, 0.0, 0.0, 0.0, 0.0, 0.0, 0.0, 0.0, 0.0, 1.751028845562636E9, 0.0, 2025-06-27 14:54:05.562
55.0, 3064.535923544875, 18373.31275621805, -10142.081694851124, 0.0, 0.0, 0.0, 0.0, 0.0, 0.02, -0.01, -1.006, 192.0, 0.0, 160.0, 255.0, 176.0, 224.0, 144.0, 0.0, 0.0, 0.0, 1.751028845566656E9, 0.0, 2025-06-27 14:54:05.566
56.0, 3172.8524771752927, 18379.86181734345, -10246.710210646417, 0.0, 0.0, 0.0, 0.0, 0.0, 0.02, -0.01, -1.006, 192.0, 0.0, 0.0, 0.0, 0.0, 0.0, 0.0, 0.0, 0.0, 0.0, 1.751028845570675E9, 0.0, 2025-06-27 14:54:05.570
57.0, 3188.6104570162843, 18351.564508863034, -10223.777320835272, 0.0, 0.0, 0.0, 0.0, 0.0, 0.02, -0.01, -1.006, 192.0, 0.0, 0.0, 0.0, 0.0, 0.0, 0.0, 0.0, 0.0, 0.0, 1.751028845574647E9, 0.0, 2025-06-27 14:54:05.574
58.0, 3067.8663334687158, 18336.410026122336, -10104.173136254924, 0.0, 0.0, 0.0, 0.0, 0.0, 0.02, -0.01, -1.006, 192.0, 0.0, 0.0, 0.0, 0.0, 0.0, 0.0, 0.0, 0.0, 0.0, 1.751028845579639E9, 0.0, 2025-06-27 14:54:05.579
59.0, 2946.786933754317, 18318.48392706918, -10036.022667410693, 0.0, 0.0, 0.0, 0.0, 0.0, 0.02, -0.01, -1.006, 192.0, 0.0, 0.0, 0.0, 0.0, 0.0, 0.0, 0.0, 0.0, 0.0, 1.751028845583666E9, 0.0, 2025-06-27 14:54:05.583
60.0, 3042.720620956495, 18343.67434307031, -10123.2391742753, 0.0, 0.0, 0.0, 0.0, 0.0, 0.02, -0.01, -1.006, 192.0, 0.0, 0.0, 0.0, 0.0, 0.0, 0.0, 0.0, 0.0, 0.0, 1.751028845587676E9, 0.0, 2025-06-27 14:54:05.587
61.0, 3178.619227244762, 18368.753000349167, -10247.447818213443, 0.0, 0.0, 0.0, 0.0, 0.0, 0.02, -0.01, -1.006, 192.0, 0.0, 0.0, 0.0, 0.0, 0.0, 0.0, 0.0, 0.0, 0.0, 1.75102884559064E9, 0.0, 2025-06-27 14:54:05.590
62.0, 3206.7600735139936, 18378.118381275937, -10275.40985052703, 0.0, 0.0, 0.0, 0.0, 0.0, 0.02, -0.01, -1.006, 192.0, 0.0, 0.0, 0.0, 0.0, 0.0, 0.0, 0.0, 0.0, 0.0, 1.75102884559469E9, 0.0, 2025-06-27 14:54:05.594
63.0, 3084.0042929654473, 18344.72487505971, -10129.251793533778, 0.0, 0.0, 0.0, 0.0, 0.0, 0.02, -0.01, -1.006, 192.0, 0.0, 0.0, 0.0, 0.0, 0.0, 0.0, 0.0, 0.0, 0.0, 1.75102884559865E9, 0.0, 2025-06-27 14:54:05.598
64.0, 2945.6022912981857, 18317.14282240186, -10018.633010224463, 0.0, 0.0, 0.0, 0.0, 0.0, 0.02, -0.01, -1.006, 192.0, 0.0, 0.0, 0.0, 0.0, 0.0, 0.0, 0.0, 0.0, 0.0, 1.751028845602704E9, 0.0, 2025-06-27 14:54:05.602
65.0, 3007.8295478617606, 18345.998924493662, -10111.884488092004, 0.0, 0.0, 0.0, 0.0, 0.0, 0.02, -0.002, -1.01, 192.0, 0.0, 160.0, 255.0, 240.0, 224.0, 112.0, 0.0, 0.0, 0.0, 1.75102884560774E9, 0.0, 2025-06-27 14:54:05.607
66.0, 3194.6901315081277, 18384.890959845896, -10248.475998458385, 0.0, 0.0, 0.0, 0.0, 0.0, 0.02, -0.002, -1.01, 192.0, 0.0, 0.0, 0.0, 0.0, 0.0, 0.0, 0.0, 0.0, 0.0, 1.751028845611696E9, 0.0, 2025-06-27 14:54:05.611
67.0, 3190.040968661424, 18347.00475299415, -10244.050353056235, 0.0, 0.0, 0.0, 0.0, 0.0, 0.02, -0.002, -1.01, 192.0, 0.0, 0.0, 0.0, 0.0, 0.0, 0.0, 0.0, 0.0, 0.0, 1.751028845615773E9, 0.0, 2025-06-27 14:54:05.615
68.0, 3024.593356203241, 18310.258485109625, -10096.104156506557, 0.0, 0.0, 0.0, 0.0, 0.0, 0.02, -0.002, -1.01, 192.0, 0.0, 0.0, 0.0, 0.0, 0.0, 0.0, 0.0, 0.0, 0.0, 1.751028845618771E9, 0.0, 2025-06-27 14:54:05.618
69.0, 3004.8344141047496, 18348.34585766147, -10061.347193878555, 0.0, 0.0, 0.0, 0.0, 0.0, 0.02, -0.002, -1.01, 192.0, 0.0, 0.0, 0.0, 0.0, 0.0, 0.0, 0.0, 0.0, 0.0, 1.751028845622707E9, 0.0, 2025-06-27 14:54:05.622
70.0, 3074.5048015719417, 18373.044535284585, -10132.626906946529, 0.0, 0.0, 0.0, 0.0, 0.0, 0.02, -0.002, -1.01, 192.0, 0.0, 0.0, 0.0, 0.0, 0.0, 0.0, 0.0, 0.0, 0.0, 1.75102884562677E9, 0.0, 2025-06-27 14:54:05.626
71.0, 3169.119735851257, 18371.412857939347, -10237.41188495301, 0.0, 0.0, 0.0, 0.0, 0.0, 0.02, -0.002, -1.01, 192.0, 0.0, 0.0, 0.0, 0.0, 0.0, 0.0, 0.0, 0.0, 0.0, 1.751028845630724E9, 0.0, 2025-06-27 14:54:05.630
72.0, 3209.5987450598177, 18376.57611090852, -10267.072649845202, 0.0, 0.0, 0.0, 0.0, 0.0, 0.02, -0.002, -1.01, 192.0, 0.0, 0.0, 0.0, 0.0, 0.0, 0.0, 0.0, 0.0, 0.0, 1.751028845635744E9, 0.0, 2025-06-27 14:54:05.635
73.0, 3068.849810224749, 18331.447938853256, -10119.10410155107, 0.0, 0.0, 0.0, 0.0, 0.0, 0.02, -0.002, -1.01, 192.0, 0.0, 0.0, 0.0, 0.0, 0.0, 0.0, 0.0, 0.0, 0.0, 1.751028845639777E9, 0.0, 2025-06-27 14:54:05.639
74.0, 2938.762657494862, 18296.020423891598, -10009.289981042146, 0.0, 0.0, 0.0, 0.0, 0.0, 0.02, -0.002, -1.01, 192.0, 0.0, 0.0, 0.0, 0.0, 0.0, 0.0, 0.0, 0.0, 0.0, 1.751028845643832E9, 0.0, 2025-06-27 14:54:05.643
75.0, 3064.5135718004194, 18347.541194861078, -10136.04672384819, 0.0, 0.0, 0.0, 0.0, 0.0, 0.018000000000000002, -0.008, -1.006, 192.0, 0.0, 144.0, 255.0, 192.0, 224.0, 144.0, 0.0, 0.0, 0.0, 1.751028845646785E9, 0.0, 2025-06-27 14:54:05.646
76.0, 3188.051663404902, 18366.562529392544, -10258.713097418917, 0.0, 0.0, 0.0, 0.0, 0.0, 0.018000000000000002, -0.008, -1.006, 192.0, 0.0, 0.0, 0.0, 0.0, 0.0, 0.0, 0.0, 0.0, 0.0, 1.751028845650808E9, 0.0, 2025-06-27 14:54:05.650
77.0, 3170.460840518575, 18337.013523222628, -10237.031905297268, 0.0, 0.0, 0.0, 0.0, 0.0, 0.018000000000000002, -0.008, -1.006, 192.0, 0.0, 0.0, 0.0, 0.0, 0.0, 0.0, 0.0, 0.0, 0.0, 1.75102884565478E9, 0.0, 2025-06-27 14:54:05.654
78.0, 3077.879914984693, 18338.86871801242, -10113.404406714966, 0.0, 0.0, 0.0, 0.0, 0.0, 0.018000000000000002, -0.008, -1.006, 192.0, 0.0, 0.0, 0.0, 0.0, 0.0, 0.0, 0.0, 0.0, 0.0, 1.751028845658893E9, 0.0, 2025-06-27 14:54:05.658
79.0, 2977.431175402543, 18331.067959197517, -10015.883745656462, 0.0, 0.0, 0.0, 0.0, 0.0, 0.018000000000000002, -0.008, -1.006, 192.0, 0.0, 0.0, 0.0, 0.0, 0.0, 0.0, 0.0, 0.0, 0.0, 1.751028845663816E9, 0.0, 2025-06-27 14:54:05.663
80.0, 2990.5069459088977, 18348.077636728005, -10093.846630316571, 0.0, 0.0, 0.0, 0.0, 0.0, 0.018000000000000002, -0.008, -1.006, 192.0, 0.0, 0.0, 0.0, 0.0, 0.0, 0.0, 0.0, 0.0, 0.0, 1.751028845667823E9, 0.0, 2025-06-27 14:54:05.667
81.0, 3197.975837943058, 18380.73353537721, -10251.739353148861, 0.0, 0.0, 0.0, 0.0, 0.0, 0.018000000000000002, -0.008, -1.006, 192.0, 0.0, 0.0, 0.0, 0.0, 0.0, 0.0, 0.0, 0.0, 0.0, 1.751028845671844E9, 0.0, 2025-06-27 14:54:05.671
82.0, 3230.810550547904, 18354.224366453214, -10271.721812691905, 0.0, 0.0, 0.0, 0.0, 0.0, 0.018000000000000002, -0.008, -1.006, 192.0, 0.0, 0.0, 0.0, 0.0, 0.0, 0.0, 0.0, 0.0, 0.0, 1.751028845674859E9, 0.0, 2025-06-27 14:54:05.674
83.0, 3055.0587838958245, 18321.367302103914, -10094.51718265023, 0.0, 0.0, 0.0, 0.0, 0.0, 0.018000000000000002, -0.008, -1.006, 192.0, 0.0, 0.0, 0.0, 0.0, 0.0, 0.0, 0.0, 0.0, 0.0, 1.751028845680858E9, 0.0, 2025-06-27 14:54:05.680
84.0, 2983.4884981499313, 18325.167098661317, -10028.490129529255, 0.0, 0.0, 0.0, 0.0, 0.0, 0.018000000000000002, -0.008, -1.006, 192.0, 0.0, 0.0, 0.0, 0.0, 0.0, 0.0, 0.0, 0.0, 0.0, 1.751028845684924E9, 0.0, 2025-06-27 14:54:05.684
85.0, 3012.6798764085624, 18322.32842711549, -10092.170249482424, 0.0, 0.0, 0.0, 0.0, 0.0, 0.016, -0.01, -1.004, 192.0, 0.0, 128.0, 255.0, 176.0, 224.0, 160.0, 0.0, 0.0, 0.0, 1.751028845688844E9, 0.0, 2025-06-27 14:54:05.688
86.0, 3113.5085956464527, 18345.641296582377, -10197.894000756027, 0.0, 0.0, 0.0, 0.0, 0.0, 0.016, -0.01, -1.004, 192.0, 0.0, 0.0, 0.0, 0.0, 0.0, 0.0, 0.0, 0.0, 0.0, 1.751028845692921E9, 0.0, 2025-06-27 14:54:05.692
87.0, 3227.7930650464377, 18359.745247333678, -10268.41375451252, 0.0, 0.0, 0.0, 0.0, 0.0, 0.016, -0.01, -1.004, 192.0, 0.0, 0.0, 0.0, 0.0, 0.0, 0.0, 0.0, 0.0, 0.0, 1.751028845695971E9, 0.0, 2025-06-27 14:54:05.695
88.0, 3110.6028688672627, 18327.29051438457, -10116.041912560691, 0.0, 0.0, 0.0, 0.0, 0.0, 0.016, -0.01, -1.004, 192.0, 0.0, 0.0, 0.0, 0.0, 0.0, 0.0, 0.0, 0.0, 0.0, 1.751028845698905E9, 0.0, 2025-06-27 14:54:05.698
89.0, 2965.54004735232, 18317.455746824235, -9998.918771614883, 0.0, 0.0, 0.0, 0.0, 0.0, 0.016, -0.01, -1.004, 192.0, 0.0, 0.0, 0.0, 0.0, 0.0, 0.0, 0.0, 0.0, 0.0, 1.751028845702991E9, 0.0, 2025-06-27 14:54:05.702
90.0, 3050.856655938227, 18345.44013088228, -10108.107043279058, 0.0, 0.0, 0.0, 0.0, 0.0, 0.016, -0.01, -1.004, 192.0, 0.0, 0.0, 0.0, 0.0, 0.0, 0.0, 0.0, 0.0, 0.0, 1.751028845706971E9, 0.0, 2025-06-27 14:54:05.706
91.0, 3123.075142273324, 18350.089293728983, -10209.852184039615, 0.0, 0.0, 0.0, 0.0, 0.0, 0.016, -0.01, -1.004, 192.0, 0.0, 0.0, 0.0, 0.0, 0.0, 0.0, 0.0, 0.0, 0.0, 1.751028845711983E9, 0.0, 2025-06-27 14:54:05.711
92.0, 3176.272294076955, 18344.948392504262, -10223.263230712799, 0.0, 0.0, 0.0, 0.0, 0.0, 0.016, -0.01, -1.004, 192.0, 0.0, 0.0, 0.0, 0.0, 0.0, 0.0, 0.0, 0.0, 0.0, 1.751028845715013E9, 0.0, 2025-06-27 14:54:05.715
93.0, 3063.373632833199, 18314.639427022867, -10078.826258042605, 0.0, 0.0, 0.0, 0.0, 0.0, 0.016, -0.01, -1.004, 192.0, 0.0, 0.0, 0.0, 0.0, 0.0, 0.0, 0.0, 0.0, 0.0, 1.751028845719004E9, 0.0, 2025-06-27 14:54:05.719
94.0, 2969.0716229762584, 18307.822144963997, -9999.298751270622, 0.0, 0.0, 0.0, 0.0, 0.0, 0.016, -0.004, -1.012, 192.0, 0.0, 128.0, 255.0, 224.0, 224.0, 96.0, 0.0, 0.0, 0.0, 1.751028845722946E9, 0.0, 2025-06-27 14:54:05.722
95.0, 3006.1755187720682, 18334.15249993235, -10076.076993474602, 0.0, 0.0, 0.0, 0.0, 0.0, 0.016, -0.004, -1.012, 192.0, 0.0, 0.0, 0.0, 0.0, 0.0, 0.0, 0.0, 0.0, 0.0, 1.751028845726951E9, 0.0, 2025-06-27 14:54:05.726
96.0, 3170.9302271521365, 18363.075657257516, -10209.986294506347, 0.0, 0.0, 0.0, 0.0, 0.0, 0.016, -0.004, -1.012, 192.0, 0.0, 0.0, 0.0, 0.0, 0.0, 0.0, 0.0, 0.0, 0.0, 1.751028845730953E9, 0.0, 2025-06-27 14:54:05.730
97.0, 3176.2499423324994, 18329.97272371921, -10225.610163880607, 0.0, 0.0, 0.0, 0.0, 0.0, 0.016, -0.004, -1.012, 192.0, 0.0, 0.0, 0.0, 0.0, 0.0, 0.0, 0.0, 0.0, 0.0, 1.751028845734965E9, 0.0, 2025-06-27 14:54:05.734
98.0, 3110.9381450340925, 18356.459540898748, -10107.81647060114, 0.0, 0.0, 0.0, 0.0, 0.0, 0.016, -0.004, -1.012, 192.0, 0.0, 0.0, 0.0, 0.0, 0.0, 0.0, 0.0, 0.0, 0.0, 1.751028845740067E9, 0.0, 2025-06-27 14:54:05.740
99.0, 2981.7674138268726, 18331.358531875438, -9997.667073925386, 0.0, 0.0, 0.0, 0.0, 0.0, 0.016, -0.004, -1.012, 192.0, 0.0, 0.0, 0.0, 0.0, 0.0, 0.0, 0.0, 0.0, 0.0, 1.751028845743034E9, 0.0, 2025-06-27 14:54:05.743
100.0, 3031.07536209528, 18344.54606110407, -10093.064319260637, 0.0, 0.0, 0.0, 0.0, 0.0, 0.016, -0.004, -1.012, 192.0, 0.0, 0.0, 0.0, 0.0, 0.0, 0.0, 0.0, 0.0, 0.0, 1.751028845746976E9, 0.0, 2025-06-27 14:54:05.746
101.0, 3140.7106686485613, 18350.804549551554, -10203.057253725203, 0.0, 0.0, 0.0, 0.0, 0.0, 0.016, -0.004, -1.012, 192.0, 0.0, 0.0, 0.0, 0.0, 0.0, 0.0, 0.0, 0.0, 0.0, 1.751028845751036E9, 0.0, 2025-06-27 14:54:05.751
102.0, 3153.115886821257, 18327.357569617936, -10190.62968380805, 0.0, 0.0, 0.0, 0.0, 0.0, 0.016, -0.004, -1.012, 192.0, 0.0, 0.0, 0.0, 0.0, 0.0, 0.0, 0.0, 0.0, 0.0, 1.751028845755072E9, 0.0, 2025-06-27 14:54:05.755
103.0, 3106.534851376397, 18312.29249385506, -10084.481249389799, 0.0, 0.0, 0.0, 0.0, 0.0, 0.016, -0.004, -1.012, 192.0, 0.0, 0.0, 0.0, 0.0, 0.0, 0.0, 0.0, 0.0, 0.0, 1.751028845759117E9, 0.0, 2025-06-27 14:54:05.759
104.0, 2979.0405010033255, 18308.805621720032, -9997.845887881027, 0.0, 0.0, 0.0, 0.0, 0.0, 0.018000000000000002, -0.01, -1.016, 192.0, 0.0, 144.0, 255.0, 176.0, 224.0, 64.0, 0.0, 0.0, 0.0, 1.751028845763061E9, 0.0, 2025-06-27 14:54:05.763
105.0, 2992.5856581432413, 18314.840592722965, -10069.28206316019, 0.0, 0.0, 0.0, 0.0, 0.0, 0.018000000000000002, -0.01, -1.016, 192.0, 0.0, 0.0, 0.0, 0.0, 0.0, 0.0, 0.0, 0.0, 0.0, 1.75102884576808E9, 0.0, 2025-06-27 14:54:05.768
106.0, 3164.850552660293, 18363.902671802363, -10201.090300213134, 0.0, 0.0, 0.0, 0.0, 0.0, 0.018000000000000002, -0.01, -1.016, 192.0, 0.0, 0.0, 0.0, 0.0, 0.0, 0.0, 0.0, 0.0, 0.0, 1.751028845771111E9, 0.0, 2025-06-27 14:54:05.771
107.0, 3168.136259095223, 18352.90561353035, -10194.228314665355, 0.0, 0.0, 0.0, 0.0, 0.0, 0.018000000000000002, -0.01, -1.016, 192.0, 0.0, 0.0, 0.0, 0.0, 0.0, 0.0, 0.0, 0.0, 0.0, 1.751028845775138E9, 0.0, 2025-06-27 14:54:05.775
108.0, 3073.99071144947, 18321.5237643151, -10088.951598280859, 0.0, 0.0, 0.0, 0.0, 0.0, 0.018000000000000002, -0.01, -1.016, 192.0, 0.0, 0.0, 0.0, 0.0, 0.0, 0.0, 0.0, 0.0, 0.0, 1.751028845779105E9, 0.0, 2025-06-27 14:54:05.779
109.0, 2989.411710430588, 18314.90764795633, -9996.862411124994, 0.0, 0.0, 0.0, 0.0, 0.0, 0.018000000000000002, -0.01, -1.016, 192.0, 0.0, 0.0, 0.0, 0.0, 0.0, 0.0, 0.0, 0.0, 0.0, 1.751028845783106E9, 0.0, 2025-06-27 14:54:05.783
110.0, 3003.694475137529, 18331.78321502009, -10036.223833110791, 0.0, 0.0, 0.0, 0.0, 0.0, 0.018000000000000002, -0.01, -1.016, 192.0, 0.0, 0.0, 0.0, 0.0, 0.0, 0.0, 0.0, 0.0, 0.0, 1.751028845787212E9, 0.0, 2025-06-27 14:54:05.787
111.0, 3110.871089800726, 18333.14667143186, -10182.761869759783, 0.0, 0.0, 0.0, 0.0, 0.0, 0.018000000000000002, -0.01, -1.016, 192.0, 0.0, 0.0, 0.0, 0.0, 0.0, 0.0, 0.0, 0.0, 0.0, 1.751028845791151E9, 0.0, 2025-06-27 14:54:05.791
112.0, 3235.7279343280716, 18356.124264731916, -10232.203928494922, 0.0, 0.0, 0.0, 0.0, 0.0, 0.018000000000000002, -0.01, -1.016, 192.0, 0.0, 0.0, 0.0, 0.0, 0.0, 0.0, 0.0, 0.0, 0.0, 1.751028845796132E9, 0.0, 2025-06-27 14:54:05.796
113.0, 3099.13642396169, 18323.177793404793, -10079.876790032005, 0.0, 0.0, 0.0, 0.0, 0.0, 0.018000000000000002, -0.01, -1.016, 192.0, 0.0, 0.0, 0.0, 0.0, 0.0, 0.0, 0.0, 0.0, 0.0, 1.751028845799159E9, 0.0, 2025-06-27 14:54:05.799
114.0, 2963.975425240448, 18307.620979263902, -9979.472753938766, 0.0, 0.0, 0.0, 0.0, 0.0, 0.02, -0.012, -1.014, 192.0, 0.0, 160.0, 255.0, 160.0, 224.0, 80.0, 0.0, 0.0, 0.0, 1.751028845802328E9, 0.0, 2025-06-27 14:54:05.802
115.0, 3011.249364763423, 18340.075712213005, -10043.957536692327, 0.0, 0.0, 0.0, 0.0, 0.0, 0.02, -0.012, -1.014, 192.0, 0.0, 0.0, 0.0, 0.0, 0.0, 0.0, 0.0, 0.0, 0.0, 1.751028845807151E9, 0.0, 2025-06-27 14:54:05.807
116.0, 3129.378334209721, 18335.53830808858, -10169.239064364323, 0.0, 0.0, 0.0, 0.0, 0.0, 0.02, -0.012, -1.014, 192.0, 0.0, 0.0, 0.0, 0.0, 0.0, 0.0, 0.0, 0.0, 0.0, 1.751028845811204E9, 0.0, 2025-06-27 14:54:05.811
117.0, 3200.5462885554184, 18343.87550877041, -10208.578134605663, 0.0, 0.0, 0.0, 0.0, 0.0, 0.02, -0.012, -1.014, 192.0, 0.0, 0.0, 0.0, 0.0, 0.0, 0.0, 0.0, 0.0, 0.0, 1.751028845815171E9, 0.0, 2025-06-27 14:54:05.815
118.0, 3078.2598946404332, 18311.37607233239, -10080.65910108794, 0.0, 0.0, 0.0, 0.0, 0.0, 0.02, -0.012, -1.014, 192.0, 0.0, 0.0, 0.0, 0.0, 0.0, 0.0, 0.0, 0.0, 0.0, 1.751028845819153E9, 0.0, 2025-06-27 14:54:05.819
119.0, 2973.072585233758, 18298.926150670784, -9984.278378996656, 0.0, 0.0, 0.0, 0.0, 0.0, 0.02, -0.012, -1.014, 192.0, 0.0, 0.0, 0.0, 0.0, 0.0, 0.0, 0.0, 0.0, 0.0, 1.751028845823199E9, 0.0, 2025-06-27 14:54:05.823
120.0, 3003.985047815448, 18322.462537582225, -10051.445371084854, 0.0, 0.0, 0.0, 0.0, 0.0, 0.02, -0.012, -1.014, 192.0, 0.0, 0.0, 0.0, 0.0, 0.0, 0.0, 0.0, 0.0, 0.0, 1.7510288458272E9, 0.0, 2025-06-27 14:54:05.827
121.0, 3140.9565378375696, 18356.124264731916, -10172.77063998826, 0.0, 0.0, 0.0, 0.0, 0.0, 0.02, -0.012, -1.014, 192.0, 0.0, 0.0, 0.0, 0.0, 0.0, 0.0, 0.0, 0.0, 0.0, 1.751028845830335E9, 0.0, 2025-06-27 14:54:05.830
122.0, 3207.4753293365634, 18350.87160478492, -10202.051425224714, 0.0, 0.0, 0.0, 0.0, 0.0, 0.02, -0.012, -1.014, 192.0, 0.0, 0.0, 0.0, 0.0, 0.0, 0.0, 0.0, 0.0, 0.0, 1.751028845836201E9, 0.0, 2025-06-27 14:54:05.836
123.0, 3086.1277086887017, 18322.797813749054, -10073.305377162145, 0.0, 0.0, 0.0, 0.0, 0.0, 0.02, -0.012, -1.014, 192.0, 0.0, 0.0, 0.0, 0.0, 0.0, 0.0, 0.0, 0.0, 0.0, 1.751028845839243E9, 0.0, 2025-06-27 14:54:05.839
124.0, 2967.2611316753787, 18305.698729240743, -9972.834285835539, 0.0, 0.0, 0.0, 0.0, 0.0, 0.016, -0.012, -1.012, 192.0, 0.0, 128.0, 255.0, 160.0, 224.0, 96.0, 0.0, 0.0, 0.0, 1.751028845843263E9, 0.0, 2025-06-27 14:54:05.843
125.0, 3023.8333968917605, 18323.133089915882, -10043.242280869757, 0.0, 0.0, 0.0, 0.0, 0.0, 0.016, -0.012, -1.012, 192.0, 0.0, 0.0, 0.0, 0.0, 0.0, 0.0, 0.0, 0.0, 0.0, 1.751028845847266E9, 0.0, 2025-06-27 14:54:05.847
126.0, 3151.3948024981983, 18342.087369213983, -10168.121477141558, 0.0, 0.0, 0.0, 0.0, 0.0, 0.016, -0.012, -1.012, 192.0, 0.0, 0.0, 0.0, 0.0, 0.0, 0.0, 0.0, 0.0, 0.0, 1.751028845852275E9, 0.0, 2025-06-27 14:54:05.852
127.0, 3207.296515380921, 18336.29826740006, -10195.077680954657, 0.0, 0.0, 0.0, 0.0, 0.0, 0.016, -0.012, -1.012, 192.0, 0.0, 0.0, 0.0, 0.0, 0.0, 0.0, 0.0, 0.0, 0.0, 1.751028845855265E9, 0.0, 2025-06-27 14:54:05.855
128.0, 3085.1889354215787, 18309.05149090904, -10064.387031124477, 0.0, 0.0, 0.0, 0.0, 0.0, 0.016, -0.012, -1.012, 192.0, 0.0, 0.0, 0.0, 0.0, 0.0, 0.0, 0.0, 0.0, 0.0, 1.751028845858289E9, 0.0, 2025-06-27 14:54:05.858
129.0, 2996.2289924894562, 18305.631674007378, -9974.242445736223, 0.0, 0.0, 0.0, 0.0, 0.0, 0.016, -0.012, -1.012, 192.0, 0.0, 0.0, 0.0, 0.0, 0.0, 0.0, 0.0, 0.0, 0.0, 1.751028845863301E9, 0.0, 2025-06-27 14:54:05.863
130.0, 3033.958737130015, 18322.641351537866, -10036.246184855245, 0.0, 0.0, 0.0, 0.0, 0.0, 0.016, -0.012, -1.012, 192.0, 0.0, 0.0, 0.0, 0.0, 0.0, 0.0, 0.0, 0.0, 0.0, 1.751028845867317E9, 0.0, 2025-06-27 14:54:05.867
131.0, 3153.518218221452, 18349.39638965087, -10169.507285297786, 0.0, 0.0, 0.0, 0.0, 0.0, 0.016, -0.012, -1.012, 192.0, 0.0, 0.0, 0.0, 0.0, 0.0, 0.0, 0.0, 0.0, 0.0, 1.751028845871341E9, 0.0, 2025-06-27 14:54:05.871
132.0, 3203.8096432458933, 18338.242869167672, -10192.082547197646, 0.0, 0.0, 0.0, 0.0, 0.0, 0.016, -0.012, -1.012, 192.0, 0.0, 0.0, 0.0, 0.0, 0.0, 0.0, 0.0, 0.0, 0.0, 1.75102884587529E9, 0.0, 2025-06-27 14:54:05.875
133.0, 3083.4454993540644, 18297.85326693693, -10059.559054322131, 0.0, 0.0, 0.0, 0.0, 0.0, 0.016, -0.012, -1.012, 192.0, 0.0, 0.0, 0.0, 0.0, 0.0, 0.0, 0.0, 0.0, 0.0, 1.751028845879297E9, 0.0, 2025-06-27 14:54:05.879
134.0, 2986.371873184666, 18302.971816417197, -9981.439707450832, 0.0, 0.0, 0.0, 0.0, 0.0, 0.014, -0.014, -1.016, 192.0, 0.0, 112.0, 255.0, 144.0, 224.0, 64.0, 0.0, 0.0, 0.0, 1.751028845883319E9, 0.0, 2025-06-27 14:54:05.883
135.0, 3037.4009057761323, 18324.96593296122, -10054.149932163946, 0.0, 0.0, 0.0, 0.0, 0.0, 0.014, -0.014, -1.016, 192.0, 0.0, 0.0, 0.0, 0.0, 0.0, 0.0, 0.0, 0.0, 0.0, 1.751028845886298E9, 0.0, 2025-06-27 14:54:05.886
136.0, 3169.0303288734353, 18335.20303192175, -10171.63070102104, 0.0, 0.0, 0.0, 0.0, 0.0, 0.014, -0.014, -1.016, 192.0, 0.0, 0.0, 0.0, 0.0, 0.0, 0.0, 0.0, 0.0, 0.0, 1.751028845890392E9, 0.0, 2025-06-27 14:54:05.890
137.0, 3212.3256578833652, 18321.836688737476, -10188.461564595886, 0.0, 0.0, 0.0, 0.0, 0.0, 0.014, -0.014, -1.016, 192.0, 0.0, 0.0, 0.0, 0.0, 0.0, 0.0, 0.0, 0.0, 0.0, 1.751028845895488E9, 0.0, 2025-06-27 14:54:05.895
138.0, 3085.9712464775143, 18307.24099960816, -10056.809789754128, 0.0, 0.0, 0.0, 0.0, 0.0, 0.014, -0.014, -1.016, 192.0, 0.0, 0.0, 0.0, 0.0, 0.0, 0.0, 0.0, 0.0, 0.0, 1.751028845899388E9, 0.0, 2025-06-27 14:54:05.899
139.0, 2994.4185011885766, 18305.989301918664, -9967.536922399631, 0.0, 0.0, 0.0, 0.0, 0.0, 0.014, -0.014, -1.016, 192.0, 0.0, 0.0, 0.0, 0.0, 0.0, 0.0, 0.0, 0.0, 0.0, 1.751028845903437E9, 0.0, 2025-06-27 14:54:05.903
140.0, 3047.2356733364672, 18318.19335439126, -10039.17426337889, 0.0, 0.0, 0.0, 0.0, 0.0, 0.014, -0.014, -1.016, 192.0, 0.0, 0.0, 0.0, 0.0, 0.0, 0.0, 0.0, 0.0, 0.0, 1.751028845907357E9, 0.0, 2025-06-27 14:54:05.907
141.0, 3167.465706761564, 18335.650066810857, -10172.68123301044, 0.0, 0.0, 0.0, 0.0, 0.0, 0.014, -0.014, -1.016, 192.0, 0.0, 0.0, 0.0, 0.0, 0.0, 0.0, 0.0, 0.0, 0.0, 1.751028845911349E9, 0.0, 2025-06-27 14:54:05.911
142.0, 3212.236250905544, 18328.452805096247, -10200.06211996819, 0.0, 0.0, 0.0, 0.0, 0.0, 0.014, -0.014, -1.016, 192.0, 0.0, 0.0, 0.0, 0.0, 0.0, 0.0, 0.0, 0.0, 0.0, 1.751028845914359E9, 0.0, 2025-06-27 14:54:05.914
143.0, 3103.9644007640363, 18308.179772875283, -10065.906949747437, 0.0, 0.0, 0.0, 0.0, 0.0, 0.014, -0.014, -1.016, 192.0, 0.0, 0.0, 0.0, 0.0, 0.0, 0.0, 0.0, 0.0, 0.0, 1.751028845918399E9, 0.0, 2025-06-27 14:54:05.918
144.0, 2998.106539023702, 18305.944598429753, -9975.002405047704, 0.0, 0.0, 0.0, 0.0, 0.0, 0.018000000000000002, -0.01, -1.016, 192.0, 0.0, 144.0, 255.0, 176.0, 224.0, 64.0, 0.0, 0.0, 0.0, 1.751028845923371E9, 0.0, 2025-06-27 14:54:05.923
145.0, 3049.2920338263552, 18322.797813749054, -10051.668888529408, 0.0, 0.0, 0.0, 0.0, 0.0, 0.018000000000000002, -0.01, -1.016, 192.0, 0.0, 0.0, 0.0, 0.0, 0.0, 0.0, 0.0, 0.0, 0.0, 1.751028845927401E9, 0.0, 2025-06-27 14:54:05.927
146.0, 3180.4520702900973, 18336.00769472214, -10182.404241848499, 0.0, 0.0, 0.0, 0.0, 0.0, 0.018000000000000002, -0.01, -1.016, 192.0, 0.0, 0.0, 0.0, 0.0, 0.0, 0.0, 0.0, 0.0, 0.0, 1.751028845931394E9, 0.0, 2025-06-27 14:54:05.931
147.0, 3230.2070534476106, 18331.269124897615, -10207.706416571906, 0.0, 0.0, 0.0, 0.0, 0.0, 0.018000000000000002, -0.01, -1.016, 192.0, 0.0, 0.0, 0.0, 0.0, 0.0, 0.0, 0.0, 0.0, 0.0, 1.751028845935422E9, 0.0, 2025-06-27 14:54:05.935
148.0, 3101.8633367852376, 18318.48392706918, -10068.969138737815, 0.0, 0.0, 0.0, 0.0, 0.0, 0.018000000000000002, -0.01, -1.016, 192.0, 0.0, 0.0, 0.0, 0.0, 0.0, 0.0, 0.0, 0.0, 0.0, 1.751028845939435E9, 0.0, 2025-06-27 14:54:05.939
149.0, 2990.752815097906, 18311.756051988134, -9977.282282982145, 0.0, 0.0, 0.0, 0.0, 0.0, 0.018000000000000002, -0.01, -1.016, 192.0, 0.0, 0.0, 0.0, 0.0, 0.0, 0.0, 0.0, 0.0, 0.0, 1.751028845942475E9, 0.0, 2025-06-27 14:54:05.942
150.0, 3045.0004988909363, 18328.43045335179, -10051.713592018317, 0.0, 0.0, 0.0, 0.0, 0.0, 0.018000000000000002, -0.01, -1.016, 192.0, 0.0, 0.0, 0.0, 0.0, 0.0, 0.0, 0.0, 0.0, 0.0, 1.751028845946436E9, 0.0, 2025-06-27 14:54:05.946
151.0, 3188.4986982940077, 18343.47317737021, -10182.337186615132, 0.0, 0.0, 0.0, 0.0, 0.0, 0.018000000000000002, -0.01, -1.016, 192.0, 0.0, 0.0, 0.0, 0.0, 0.0, 0.0, 0.0, 0.0, 0.0, 1.751028845951456E9, 0.0, 2025-06-27 14:54:05.951
152.0, 3225.6920010676386, 18336.76765403362, -10212.601448607618, 0.0, 0.0, 0.0, 0.0, 0.0, 0.018000000000000002, -0.01, -1.016, 192.0, 0.0, 0.0, 0.0, 0.0, 0.0, 0.0, 0.0, 0.0, 0.0, 1.751028845955449E9, 0.0, 2025-06-27 14:54:05.955
153.0, 3100.1869559510897, 18322.931924215787, -10088.929246536403, 0.0, 0.0, 0.0, 0.0, 0.0, 0.018000000000000002, -0.008, -1.008, 192.0, 0.0, 144.0, 255.0, 192.0, 224.0, 128.0, 0.0, 0.0, 0.0, 1.751028845959477E9, 0.0, 2025-06-27 14:54:05.959
154.0, 3004.074454793269, 18311.711348499222, -9994.560181446097, 0.0, 0.0, 0.0, 0.0, 0.0, 0.018000000000000002, -0.008, -1.008, 192.0, 0.0, 0.0, 0.0, 0.0, 0.0, 0.0, 0.0, 0.0, 0.0, 1.751028845963529E9, 0.0, 2025-06-27 14:54:05.963
155.0, 3052.17540886109, 18335.895935999863, -10057.547397321154, 0.0, 0.0, 0.0, 0.0, 0.0, 0.018000000000000002, -0.008, -1.008, 192.0, 0.0, 0.0, 0.0, 0.0, 0.0, 0.0, 0.0, 0.0, 0.0, 1.751028845966531E9, 0.0, 2025-06-27 14:54:05.966
156.0, 3174.238285331522, 18343.942564003773, -10180.280826125245, 0.0, 0.0, 0.0, 0.0, 0.0, 0.018000000000000002, -0.008, -1.008, 192.0, 0.0, 0.0, 0.0, 0.0, 0.0, 0.0, 0.0, 0.0, 0.0, 1.751028845970528E9, 0.0, 2025-06-27 14:54:05.970
157.0, 3221.9592597436026, 18330.464462097225, -10206.678236326961, 0.0, 0.0, 0.0, 0.0, 0.0, 0.018000000000000002, -0.008, -1.008, 192.0, 0.0, 0.0, 0.0, 0.0, 0.0, 0.0, 0.0, 0.0, 0.0, 1.751028845974549E9, 0.0, 2025-06-27 14:54:05.974
158.0, 3107.7418455769835, 18310.325540342994, -10074.959406251837, 0.0, 0.0, 0.0, 0.0, 0.0, 0.018000000000000002, -0.008, -1.008, 192.0, 0.0, 0.0, 0.0, 0.0, 0.0, 0.0, 0.0, 0.0, 0.0, 1.75102884597856E9, 0.0, 2025-06-27 14:54:05.978
159.0, 3005.2143937604897, 18316.248752623647, -9986.73707088674, 0.0, 0.0, 0.0, 0.0, 0.0, 0.018000000000000002, -0.008, -1.008, 192.0, 0.0, 0.0, 0.0, 0.0, 0.0, 0.0, 0.0, 0.0, 0.0, 1.751028845983541E9, 0.0, 2025-06-27 14:54:05.983
160.0, 3050.275510582389, 18343.026142481107, -10058.08383918808, 0.0, 0.0, 0.0, 0.0, 0.0, 0.018000000000000002, -0.008, -1.008, 192.0, 0.0, 0.0, 0.0, 0.0, 0.0, 0.0, 0.0, 0.0, 0.0, 1.751028845987539E9, 0.0, 2025-06-27 14:54:05.987
161.0, 3176.428756288142, 18354.939622275786, -10178.515038313275, 0.0, 0.0, 0.0, 0.0, 0.0, 0.018000000000000002, -0.008, -1.008, 192.0, 0.0, 0.0, 0.0, 0.0, 0.0, 0.0, 0.0, 0.0, 0.0, 1.751028845991576E9, 0.0, 2025-06-27 14:54:05.991
162.0, 3230.810550547904, 18345.35072390446, -10211.953248018413, 0.0, 0.0, 0.0, 0.0, 0.0, 0.018000000000000002, -0.008, -1.008, 192.0, 0.0, 0.0, 0.0, 0.0, 0.0, 0.0, 0.0, 0.0, 0.0, 1.751028845994568E9, 0.0, 2025-06-27 14:54:05.994
163.0, 3117.375447437221, 18316.852249723943, -10081.352005166054, 0.0, 0.0, 0.0, 0.0, 0.0, 0.022, -0.01, -1.004, 192.0, 0.0, 176.0, 255.0, 176.0, 224.0, 160.0, 0.0, 0.0, 0.0, 1.751028845998553E9, 0.0, 2025-06-27 14:54:05.998
164.0, 3013.8421671202386, 18313.85711596693, -9995.230733779757, 0.0, 0.0, 0.0, 0.0, 0.0, 0.022, -0.01, -1.004, 192.0, 0.0, 0.0, 0.0, 0.0, 0.0, 0.0, 0.0, 0.0, 0.0, 1.751028846002591E9, 0.0, 2025-06-27 14:54:06.002
165.0, 3054.120010628702, 18343.96491574823, -10065.348156136055, 0.0, 0.0, 0.0, 0.0, 0.0, 0.022, -0.01, -1.004, 192.0, 0.0, 0.0, 0.0, 0.0, 0.0, 0.0, 0.0, 0.0, 0.0, 1.751028846006564E9, 0.0, 2025-06-27 14:54:06.006
166.0, 3176.29464582141, 18362.718029346233, -10183.812401749183, 0.0, 0.0, 0.0, 0.0, 0.0, 0.022, -0.01, -1.004, 192.0, 0.0, 0.0, 0.0, 0.0, 0.0, 0.0, 0.0, 0.0, 0.0, 1.751028846011577E9, 0.0, 2025-06-27 14:54:06.011
167.0, 3240.69002159715, 18344.657819826345, -10207.527602616263, 0.0, 0.0, 0.0, 0.0, 0.0, 0.022, -0.01, -1.004, 192.0, 0.0, 0.0, 0.0, 0.0, 0.0, 0.0, 0.0, 0.0, 0.0, 1.751028846015586E9, 0.0, 2025-06-27 14:54:06.015
168.0, 3119.4765114160195, 18326.798776006555, -10082.42488889991, 0.0, 0.0, 0.0, 0.0, 0.0, 0.022, -0.01, -1.004, 192.0, 0.0, 0.0, 0.0, 0.0, 0.0, 0.0, 0.0, 0.0, 0.0, 1.751028846019639E9, 0.0, 2025-06-27 14:54:06.019
169.0, 3017.3290392552663, 18326.06116843953, -9994.984864590748, 0.0, 0.0, 0.0, 0.0, 0.0, 0.022, -0.01, -1.004, 192.0, 0.0, 0.0, 0.0, 0.0, 0.0, 0.0, 0.0, 0.0, 0.0, 1.751028846022628E9, 0.0, 2025-06-27 14:54:06.022
170.0, 3058.456249053031, 18346.736532060688, -10058.597929310552, 0.0, 0.0, 0.0, 0.0, 0.0, 0.022, -0.01, -1.004, 192.0, 0.0, 0.0, 0.0, 0.0, 0.0, 0.0, 0.0, 0.0, 0.0, 1.751028846026647E9, 0.0, 2025-06-27 14:54:06.026
171.0, 3189.5045267944965, 18362.293346201583, -10182.225427892856, 0.0, 0.0, 0.0, 0.0, 0.0, 0.022, -0.01, -1.004, 192.0, 0.0, 0.0, 0.0, 0.0, 0.0, 0.0, 0.0, 0.0, 0.0, 1.751028846030693E9, 0.0, 2025-06-27 14:54:06.030
172.0, 3234.4538848941193, 18355.498415887167, -10213.294352685733, 0.0, 0.0, 0.0, 0.0, 0.0, 0.022, -0.01, -1.004, 192.0, 0.0, 0.0, 0.0, 0.0, 0.0, 0.0, 0.0, 0.0, 0.0, 1.751028846034654E9, 0.0, 2025-06-27 14:54:06.034
173.0, 3114.9167555471367, 18326.776424262098, -10081.731984821796, 0.0, 0.0, 0.0, 0.0, 0.0, 0.014, -0.004, -1.012, 192.0, 0.0, 112.0, 255.0, 224.0, 224.0, 96.0, 0.0, 0.0, 0.0, 1.751028846038662E9, 0.0, 2025-06-27 14:54:06.038
174.0, 3014.8703473651826, 18322.82016549351, -9987.11705054248, 0.0, 0.0, 0.0, 0.0, 0.0, 0.014, -0.004, -1.012, 192.0, 0.0, 0.0, 0.0, 0.0, 0.0, 0.0, 0.0, 0.0, 0.0, 1.751028846043662E9, 0.0, 2025-06-27 14:54:06.043
175.0, 3060.669071754107, 18354.000849008662, -10060.162551422423, 0.0, 0.0, 0.0, 0.0, 0.0, 0.014, -0.004, -1.012, 192.0, 0.0, 0.0, 0.0, 0.0, 0.0, 0.0, 0.0, 0.0, 0.0, 1.751028846047669E9, 0.0, 2025-06-27 14:54:06.047
176.0, 3192.4102535736865, 18366.49547415918, -10184.482954082841, 0.0, 0.0, 0.0, 0.0, 0.0, 0.014, -0.004, -1.012, 192.0, 0.0, 0.0, 0.0, 0.0, 0.0, 0.0, 0.0, 0.0, 0.0, 1.751028846050771E9, 0.0, 2025-06-27 14:54:06.050
177.0, 3244.042783265446, 18354.559642620046, -10208.756948561306, 0.0, 0.0, 0.0, 0.0, 0.0, 0.014, -0.004, -1.012, 192.0, 0.0, 0.0, 0.0, 0.0, 0.0, 0.0, 0.0, 0.0, 0.0, 1.751028846054697E9, 0.0, 2025-06-27 14:54:06.054
178.0, 3123.6115841402516, 18333.325485387504, -10079.94384526537, 0.0, 0.0, 0.0, 0.0, 0.0, 0.014, -0.004, -1.012, 192.0, 0.0, 0.0, 0.0, 0.0, 0.0, 0.0, 0.0, 0.0, 0.0, 1.751028846058738E9, 0.0, 2025-06-27 14:54:06.058
179.0, 3024.593356203241, 18335.53830808858, -9992.235600022746, 0.0, 0.0, 0.0, 0.0, 0.0, 0.014, -0.004, -1.012, 192.0, 0.0, 0.0, 0.0, 0.0, 0.0, 0.0, 0.0, 0.0, 0.0, 1.751028846062717E9, 0.0, 2025-06-27 14:54:06.062
180.0, 3068.8051067358383, 18357.510072888144, -10053.300565874644, 0.0, 0.0, 0.0, 0.0, 0.0, 0.014, -0.004, -1.012, 192.0, 0.0, 0.0, 0.0, 0.0, 0.0, 0.0, 0.0, 0.0, 0.0, 1.751028846066753E9, 0.0, 2025-06-27 14:54:06.066
181.0, 3198.691093765628, 18370.675250372322, -10177.799782490705, 0.0, 0.0, 0.0, 0.0, 0.0, 0.014, -0.004, -1.012, 192.0, 0.0, 0.0, 0.0, 0.0, 0.0, 0.0, 0.0, 0.0, 0.0, 1.751028846071727E9, 0.0, 2025-06-27 14:54:06.071
182.0, 3245.965033288602, 18361.15340723436, -10214.099015486123, 0.0, 0.0, 0.0, 0.0, 0.0, 0.014, -0.004, -1.012, 192.0, 0.0, 0.0, 0.0, 0.0, 0.0, 0.0, 0.0, 0.0, 0.0, 1.751028846075725E9, 0.0, 2025-06-27 14:54:06.075
183.0, 3124.9973922964805, 18337.617020322923, -10085.464726145832, 0.0, 0.0, 0.0, 0.0, 0.0, 0.014, -0.008, -1.01, 192.0, 0.0, 112.0, 255.0, 192.0, 224.0, 112.0, 0.0, 0.0, 0.0, 1.751028846078818E9, 0.0, 2025-06-27 14:54:06.078
184.0, 3020.972373601481, 18334.308962143536, -9993.241428523235, 0.0, 0.0, 0.0, 0.0, 0.0, 0.014, -0.008, -1.01, 192.0, 0.0, 0.0, 0.0, 0.0, 0.0, 0.0, 0.0, 0.0, 0.0, 1.751028846082797E9, 0.0, 2025-06-27 14:54:06.082
185.0, 3066.6369875236737, 18361.488683401192, -10064.476438102298, 0.0, 0.0, 0.0, 0.0, 0.0, 0.014, -0.008, -1.01, 192.0, 0.0, 0.0, 0.0, 0.0, 0.0, 0.0, 0.0, 0.0, 0.0, 1.751028846086785E9, 0.0, 2025-06-27 14:54:06.086
186.0, 3193.1255093962563, 18382.16404702235, -10189.132116929546, 0.0, 0.0, 0.0, 0.0, 0.0, 0.014, -0.008, -1.01, 192.0, 0.0, 0.0, 0.0, 0.0, 0.0, 0.0, 0.0, 0.0, 0.0, 1.75102884609079E9, 0.0, 2025-06-27 14:54:06.090
187.0, 3242.7016785981273, 18378.811285354055, -10219.64224811104, 0.0, 0.0, 0.0, 0.0, 0.0, 0.014, -0.008, -1.01, 192.0, 0.0, 0.0, 0.0, 0.0, 0.0, 0.0, 0.0, 0.0, 0.0, 1.751028846094848E9, 0.0, 2025-06-27 14:54:06.094
188.0, 3133.3792964672207, 18349.329334417504, -10094.181906483402, 0.0, 0.0, 0.0, 0.0, 0.0, 0.014, -0.008, -1.01, 192.0, 0.0, 0.0, 0.0, 0.0, 0.0, 0.0, 0.0, 0.0, 0.0, 1.751028846099825E9, 0.0, 2025-06-27 14:54:06.099
189.0, 3030.471864994987, 18340.20982267974, -10006.965399618794, 0.0, 0.0, 0.0, 0.0, 0.0, 0.014, -0.008, -1.01, 192.0, 0.0, 0.0, 0.0, 0.0, 0.0, 0.0, 0.0, 0.0, 0.0, 1.751028846103821E9, 0.0, 2025-06-27 14:54:06.103
190.0, 3070.526191058897, 18363.098009001973, -10075.205275440845, 0.0, 0.0, 0.0, 0.0, 0.0, 0.014, -0.008, -1.01, 192.0, 0.0, 0.0, 0.0, 0.0, 0.0, 0.0, 0.0, 0.0, 0.0, 1.751028846106867E9, 0.0, 2025-06-27 14:54:06.106
191.0, 3195.2042216306, 18379.92887257682, -10200.263285668289, 0.0, 0.0, 0.0, 0.0, 0.0, 0.014, -0.008, -1.01, 192.0, 0.0, 0.0, 0.0, 0.0, 0.0, 0.0, 0.0, 0.0, 0.0, 1.751028846110811E9, 0.0, 2025-06-27 14:54:06.110
192.0, 3249.1166292568005, 18372.552796906566, -10228.873518571081, 0.0, 0.0, 0.0, 0.0, 0.0, 0.014, -0.008, -1.01, 192.0, 0.0, 0.0, 0.0, 0.0, 0.0, 0.0, 0.0, 0.0, 0.0, 1.751028846114829E9, 0.0, 2025-06-27 14:54:06.114
193.0, 3135.4580087015643, 18349.82107279552, -10096.685301862395, 0.0, 0.0, 0.0, 0.0, 0.0, 0.018000000000000002, -0.006, -1.016, 192.0, 0.0, 144.0, 255.0, 208.0, 224.0, 64.0, 0.0, 0.0, 0.0, 1.751028846118841E9, 0.0, 2025-06-27 14:54:06.118
194.0, 3031.500045239931, 18345.90951751584, -10005.043149595636, 0.0, 0.0, 0.0, 0.0, 0.0, 0.018000000000000002, -0.006, -1.016, 192.0, 0.0, 0.0, 0.0, 0.0, 0.0, 0.0, 0.0, 0.0, 0.0, 1.751028846122953E9, 0.0, 2025-06-27 14:54:06.122
195.0, 3075.7341475169837, 18365.579052636513, -10071.114906205525, 0.0, 0.0, 0.0, 0.0, 0.0, 0.018000000000000002, -0.006, -1.016, 192.0, 0.0, 0.0, 0.0, 0.0, 0.0, 0.0, 0.0, 0.0, 0.0, 1.751028846126887E9, 0.0, 2025-06-27 14:54:06.126
196.0, 3203.58612580134, 18381.694660388788, -10198.519849600774, 0.0, 0.0, 0.0, 0.0, 0.0, 0.018000000000000002, -0.006, -1.016, 192.0, 0.0, 0.0, 0.0, 0.0, 0.0, 0.0, 0.0, 0.0, 0.0, 1.751028846131876E9, 0.0, 2025-06-27 14:54:06.131
197.0, 3254.2798822259765, 18374.67621262982, -10235.400227952032, 0.0, 0.0, 0.0, 0.0, 0.0, 0.018000000000000002, -0.006, -1.016, 192.0, 0.0, 0.0, 0.0, 0.0, 0.0, 0.0, 0.0, 0.0, 0.0, 1.75102884613487E9, 0.0, 2025-06-27 14:54:06.134
198.0, 3136.2850232464107, 18351.519805374122, -10107.90587757896, 0.0, 0.0, 0.0, 0.0, 0.0, 0.018000000000000002, -0.006, -1.016, 192.0, 0.0, 0.0, 0.0, 0.0, 0.0, 0.0, 0.0, 0.0, 0.0, 1.751028846138874E9, 0.0, 2025-06-27 14:54:06.138
199.0, 3033.2211295629895, 18341.707389558243, -10013.134481088458, 0.0, 0.0, 0.0, 0.0, 0.0, 0.018000000000000002, -0.006, -1.016, 192.0, 0.0, 0.0, 0.0, 0.0, 0.0, 0.0, 0.0, 0.0, 0.0, 1.751028846142976E9, 0.0, 2025-06-27 14:54:06.142
200.0, 3069.877990469693, 18365.28847995859, -10075.987586496782, 0.0, 0.0, 0.0, 0.0, 0.0, 0.018000000000000002, -0.006, -1.016, 192.0, 0.0, 0.0, 0.0, 0.0, 0.0, 0.0, 0.0, 0.0, 0.0, 1.751028846146965E9, 0.0, 2025-06-27 14:54:06.146
201.0, 3193.974875685558, 18379.01245105415, -10199.30216065671, 0.0, 0.0, 0.0, 0.0, 0.0, 0.018000000000000002, -0.006, -1.016, 192.0, 0.0, 0.0, 0.0, 0.0, 0.0, 0.0, 0.0, 0.0, 0.0, 1.751028846150962E9, 0.0, 2025-06-27 14:54:06.150
202.0, 3251.932949058169, 18369.736477105198, -10232.673315128484, 0.0, 0.0, 0.0, 0.0, 0.0, 0.018000000000000002, -0.006, -1.016, 192.0, 0.0, 0.0, 0.0, 0.0, 0.0, 0.0, 0.0, 0.0, 0.0, 1.751028846154956E9, 0.0, 2025-06-27 14:54:06.154
203.0, 3141.9400145936033, 18347.295325672072, -10106.989456056292, 0.0, 0.0, 0.0, 0.0, 0.0, 0.018000000000000002, -0.01, -1.016, 192.0, 0.0, 144.0, 255.0, 176.0, 224.0, 64.0, 0.0, 0.0, 0.0, 1.751028846161005E9, 0.0, 2025-06-27 14:54:06.161
204.0, 3038.563196487808, 18346.7812355496, -10014.229716566768, 0.0, 0.0, 0.0, 0.0, 0.0, 0.018000000000000002, -0.01, -1.016, 192.0, 0.0, 0.0, 0.0, 0.0, 0.0, 0.0, 0.0, 0.0, 0.0, 1.751028846163996E9, 0.0, 2025-06-27 14:54:06.163
205.0, 3074.7730225054056, 18368.52948290461, -10079.183885953891, 0.0, 0.0, 0.0, 0.0, 0.0, 0.018000000000000002, -0.01, -1.016, 192.0, 0.0, 0.0, 0.0, 0.0, 0.0, 0.0, 0.0, 0.0, 0.0, 1.751028846167999E9, 0.0, 2025-06-27 14:54:06.167
206.0, 3196.0535879199015, 18383.929834834318, -10207.885230527549, 0.0, 0.0, 0.0, 0.0, 0.0, 0.018000000000000002, -0.01, -1.016, 192.0, 0.0, 0.0, 0.0, 0.0, 0.0, 0.0, 0.0, 0.0, 0.0, 1.751028846171028E9, 0.0, 2025-06-27 14:54:06.171
207.0, 3254.9280828151805, 18378.364250464947, -10244.206815267422, 0.0, 0.0, 0.0, 0.0, 0.0, 0.018000000000000002, -0.01, -1.016, 192.0, 0.0, 0.0, 0.0, 0.0, 0.0, 0.0, 0.0, 0.0, 0.0, 1.751028846175019E9, 0.0, 2025-06-27 14:54:06.175
208.0, 3144.912796606159, 18355.319601931526, -10114.969028826838, 0.0, 0.0, 0.0, 0.0, 0.0, 0.018000000000000002, -0.01, -1.016, 192.0, 0.0, 0.0, 0.0, 0.0, 0.0, 0.0, 0.0, 0.0, 0.0, 1.751028846179017E9, 0.0, 2025-06-27 14:54:06.179
209.0, 3041.826551178283, 18346.289497171583, -10016.17431833438, 0.0, 0.0, 0.0, 0.0, 0.0, 0.018000000000000002, -0.01, -1.016, 192.0, 0.0, 0.0, 0.0, 0.0, 0.0, 0.0, 0.0, 0.0, 0.0, 1.751028846182989E9, 0.0, 2025-06-27 14:54:06.182
210.0, 3074.348339360755, 18370.474084672223, -10076.56873185262, 0.0, 0.0, 0.0, 0.0, 0.0, 0.018000000000000002, -0.01, -1.016, 192.0, 0.0, 0.0, 0.0, 0.0, 0.0, 0.0, 0.0, 0.0, 0.0, 1.751028846187987E9, 0.0, 2025-06-27 14:54:06.187
211.0, 3201.7309310115497, 18389.674233159334, -10207.192326449434, 0.0, 0.0, 0.0, 0.0, 0.0, 0.018000000000000002, -0.01, -1.016, 192.0, 0.0, 0.0, 0.0, 0.0, 0.0, 0.0, 0.0, 0.0, 0.0, 1.751028846191053E9, 0.0, 2025-06-27 14:54:06.191
212.0, 3254.816324092904, 18378.096029531484, -10243.379800722576, 0.0, 0.0, 0.0, 0.0, 0.0, 0.016, -0.002, -1.012, 192.0, 0.0, 128.0, 255.0, 240.0, 224.0, 96.0, 0.0, 0.0, 0.0, 1.751028846194044E9, 0.0, 2025-06-27 14:54:06.194
213.0, 3138.4084389696645, 18351.989192007684, -10111.325694480622, 0.0, 0.0, 0.0, 0.0, 0.0, 0.016, -0.002, -1.012, 192.0, 0.0, 0.0, 0.0, 0.0, 0.0, 0.0, 0.0, 0.0, 0.0, 1.751028846199005E9, 0.0, 2025-06-27 14:54:06.199
214.0, 3035.1433795861462, 18348.792892550577, -10019.705893958318, 0.0, 0.0, 0.0, 0.0, 0.0, 0.016, -0.002, -1.012, 192.0, 0.0, 0.0, 0.0, 0.0, 0.0, 0.0, 0.0, 0.0, 0.0, 1.751028846203039E9, 0.0, 2025-06-27 14:54:06.203
215.0, 3078.3493016182547, 18367.21072998175, -10084.324787178612, 0.0, 0.0, 0.0, 0.0, 0.0, 0.016, -0.002, -1.012, 192.0, 0.0, 0.0, 0.0, 0.0, 0.0, 0.0, 0.0, 0.0, 0.0, 1.751028846207047E9, 0.0, 2025-06-27 14:54:06.207
216.0, 3205.2178031465774, 18381.046459799585, -10205.761814804295, 0.0, 0.0, 0.0, 0.0, 0.0, 0.016, -0.002, -1.012, 192.0, 0.0, 0.0, 0.0, 0.0, 0.0, 0.0, 0.0, 0.0, 0.0, 1.75102884621105E9, 0.0, 2025-06-27 14:54:06.211
217.0, 3258.325547972387, 18377.06784928654, -10241.658716399517, 0.0, 0.0, 0.0, 0.0, 0.0, 0.016, -0.002, -1.012, 192.0, 0.0, 0.0, 0.0, 0.0, 0.0, 0.0, 0.0, 0.0, 0.0, 1.751028846216055E9, 0.0, 2025-06-27 14:54:06.216
218.0, 3144.2422442724996, 18353.643221097376, -10113.314999737144, 0.0, 0.0, 0.0, 0.0, 0.0, 0.016, -0.002, -1.012, 192.0, 0.0, 0.0, 0.0, 0.0, 0.0, 0.0, 0.0, 0.0, 0.0, 1.751028846219056E9, 0.0, 2025-06-27 14:54:06.219
219.0, 3037.311498798311, 18349.754017562154, -10022.991600393249, 0.0, 0.0, 0.0, 0.0, 0.0, 0.016, -0.002, -1.012, 192.0, 0.0, 0.0, 0.0, 0.0, 0.0, 0.0, 0.0, 0.0, 0.0, 1.751028846222078E9, 0.0, 2025-06-27 14:54:06.222
220.0, 3072.426089337598, 18370.854064327963, -10084.257731945245, 0.0, 0.0, 0.0, 0.0, 0.0, 0.016, -0.002, -1.012, 192.0, 0.0, 0.0, 0.0, 0.0, 0.0, 0.0, 0.0, 0.0, 0.0, 1.75102884622709E9, 0.0, 2025-06-27 14:54:06.227
221.0, 3196.835898975837, 18388.53429419211, -10211.483861384853, 0.0, 0.0, 0.0, 0.0, 0.0, 0.016, -0.002, -1.012, 192.0, 0.0, 0.0, 0.0, 0.0, 0.0, 0.0, 0.0, 0.0, 0.0, 1.751028846231115E9, 0.0, 2025-06-27 14:54:06.231
222.0, 3253.8999025702365, 18381.5381981776, -10251.873463615593, 0.0, 0.0, 0.0, 0.0, 0.0, 0.018000000000000002, -0.002, -1.016, 192.0, 0.0, 144.0, 255.0, 240.0, 224.0, 64.0, 0.0, 0.0, 0.0, 1.751028846235105E9, 0.0, 2025-06-27 14:54:06.235
223.0, 3148.042040829902, 18359.611136866944, -10120.847537618583, 0.0, 0.0, 0.0, 0.0, 0.0, 0.018000000000000002, -0.002, -1.016, 192.0, 0.0, 0.0, 0.0, 0.0, 0.0, 0.0, 0.0, 0.0, 0.0, 1.751028846239099E9, 0.0, 2025-06-27 14:54:06.239
224.0, 3046.922748914093, 18350.178700706805, -10018.767120691195, 0.0, 0.0, 0.0, 0.0, 0.0, 0.018000000000000002, -0.002, -1.016, 192.0, 0.0, 0.0, 0.0, 0.0, 0.0, 0.0, 0.0, 0.0, 0.0, 1.751028846243126E9, 0.0, 2025-06-27 14:54:06.243
225.0, 3078.37165336271, 18372.910424817852, -10080.100307476558, 0.0, 0.0, 0.0, 0.0, 0.0, 0.018000000000000002, -0.002, -1.016, 192.0, 0.0, 0.0, 0.0, 0.0, 0.0, 0.0, 0.0, 0.0, 0.0, 1.751028846247154E9, 0.0, 2025-06-27 14:54:06.247
226.0, 3197.3276373538542, 18391.082393060016, -10208.086396227645, 0.0, 0.0, 0.0, 0.0, 0.0, 0.018000000000000002, -0.002, -1.016, 192.0, 0.0, 0.0, 0.0, 0.0, 0.0, 0.0, 0.0, 0.0, 0.0, 1.751028846250166E9, 0.0, 2025-06-27 14:54:06.250
227.0, 3254.034013036968, 18383.505151689667, -10244.162111778513, 0.0, 0.0, 0.0, 0.0, 0.0, 0.018000000000000002, -0.002, -1.016, 192.0, 0.0, 0.0, 0.0, 0.0, 0.0, 0.0, 0.0, 0.0, 0.0, 1.751028846255136E9, 0.0, 2025-06-27 14:54:06.255
228.0, 3146.969157096047, 18354.336125175494, -10117.293610250188, 0.0, 0.0, 0.0, 0.0, 0.0, 0.018000000000000002, -0.002, -1.016, 192.0, 0.0, 0.0, 0.0, 0.0, 0.0, 0.0, 0.0, 0.0, 0.0, 1.751028846259216E9, 0.0, 2025-06-27 14:54:06.259
229.0, 3038.6526034656295, 18347.831767539, -10023.148062604436, 0.0, 0.0, 0.0, 0.0, 0.0, 0.018000000000000002, -0.002, -1.016, 192.0, 0.0, 0.0, 0.0, 0.0, 0.0, 0.0, 0.0, 0.0, 0.0, 1.751028846263156E9, 0.0, 2025-06-27 14:54:06.263
230.0, 3074.7953742498607, 18373.31275621805, -10083.028386000204, 0.0, 0.0, 0.0, 0.0, 0.0, 0.018000000000000002, -0.002, -1.016, 192.0, 0.0, 0.0, 0.0, 0.0, 0.0, 0.0, 0.0, 0.0, 0.0, 1.751028846267193E9, 0.0, 2025-06-27 14:54:06.267
231.0, 3200.233364133044, 18391.17180003784, -10213.741387574839, 0.0, 0.0, 0.0, 0.0, 0.0, 0.018000000000000002, -0.002, -1.016, 192.0, 0.0, 0.0, 0.0, 0.0, 0.0, 0.0, 0.0, 0.0, 0.0, 1.751028846271185E9, 0.0, 2025-06-27 14:54:06.271
232.0, 3257.722050872094, 18382.36521272245, -10249.21360602541, 0.0, 0.0, 0.0, 0.0, 0.0, 0.02, -0.004, -1.01, 192.0, 0.0, 160.0, 255.0, 224.0, 224.0, 112.0, 0.0, 0.0, 0.0, 1.751028846275259E9, 0.0, 2025-06-27 14:54:06.275
233.0, 3146.656232673673, 18361.15340723436, -10120.780482385217, 0.0, 0.0, 0.0, 0.0, 0.0, 0.02, -0.004, -1.01, 192.0, 0.0, 0.0, 0.0, 0.0, 0.0, 0.0, 0.0, 0.0, 0.0, 1.751028846278192E9, 0.0, 2025-06-27 14:54:06.278
234.0, 3042.9888418899586, 18351.609212351945, -10023.550394004631, 0.0, 0.0, 0.0, 0.0, 0.0, 0.02, -0.004, -1.01, 192.0, 0.0, 0.0, 0.0, 0.0, 0.0, 0.0, 0.0, 0.0, 0.0, 1.751028846282202E9, 0.0, 2025-06-27 14:54:06.282
235.0, 3076.94114171757, 18376.73257311971, -10082.290778433178, 0.0, 0.0, 0.0, 0.0, 0.0, 0.02, -0.004, -1.01, 192.0, 0.0, 0.0, 0.0, 0.0, 0.0, 0.0, 0.0, 0.0, 0.0, 1.751028846287228E9, 0.0, 2025-06-27 14:54:06.287
236.0, 3201.418006589175, 18393.58578843901, -10211.2603439403, 0.0, 0.0, 0.0, 0.0, 0.0, 0.02, -0.004, -1.01, 192.0, 0.0, 0.0, 0.0, 0.0, 0.0, 0.0, 0.0, 0.0, 0.0, 1.751028846291245E9, 0.0, 2025-06-27 14:54:06.291
237.0, 3261.7006613851386, 18385.852084857474, -10245.41380946801, 0.0, 0.0, 0.0, 0.0, 0.0, 0.02, -0.004, -1.01, 192.0, 0.0, 0.0, 0.0, 0.0, 0.0, 0.0, 0.0, 0.0, 0.0, 1.751028846295233E9, 0.0, 2025-06-27 14:54:06.295
238.0, 3148.0867443188126, 18360.415799667335, -10118.455900961864, 0.0, 0.0, 0.0, 0.0, 0.0, 0.02, -0.004, -1.01, 192.0, 0.0, 0.0, 0.0, 0.0, 0.0, 0.0, 0.0, 0.0, 0.0, 1.751028846299257E9, 0.0, 2025-06-27 14:54:06.299
239.0, 3041.8041994338278, 18352.458578641246, -10024.332705060568, 0.0, 0.0, 0.0, 0.0, 0.0, 0.02, -0.004, -1.01, 192.0, 0.0, 0.0, 0.0, 0.0, 0.0, 0.0, 0.0, 0.0, 0.0, 1.75102884630333E9, 0.0, 2025-06-27 14:54:06.303
240.0, 3076.56116206183, 18373.78214285161, -10082.067260988624, 0.0, 0.0, 0.0, 0.0, 0.0, 0.02, -0.004, -1.01, 192.0, 0.0, 0.0, 0.0, 0.0, 0.0, 0.0, 0.0, 0.0, 0.0, 1.751028846306257E9, 0.0, 2025-06-27 14:54:06.306
241.0, 3198.8252042323597, 18392.334090749515, -10209.762777061795, 0.0, 0.0, 0.0, 0.0, 0.0, 0.02, -0.004, -1.01, 192.0, 0.0, 0.0, 0.0, 0.0, 0.0, 0.0, 0.0, 0.0, 0.0, 1.751028846310296E9, 0.0, 2025-06-27 14:54:06.310
242.0, 3258.303196227932, 18385.49445694619, -10253.281623516277, 0.0, 0.0, 0.0, 0.0, 0.0, 0.022, -0.008, -1.004, 192.0, 0.0, 176.0, 255.0, 192.0, 224.0, 160.0, 0.0, 0.0, 0.0, 1.751028846315282E9, 0.0, 2025-06-27 14:54:06.315
243.0, 3150.7242501645387, 18361.95807003475, -10126.569584199142, 0.0, 0.0, 0.0, 0.0, 0.0, 0.022, -0.008, -1.004, 192.0, 0.0, 0.0, 0.0, 0.0, 0.0, 0.0, 0.0, 0.0, 0.0, 1.751028846319297E9, 0.0, 2025-06-27 14:54:06.319
244.0, 3043.3017663123333, 18353.844386797475, -10024.22094633829, 0.0, 0.0, 0.0, 0.0, 0.0, 0.022, -0.008, -1.004, 192.0, 0.0, 0.0, 0.0, 0.0, 0.0, 0.0, 0.0, 0.0, 0.0, 1.751028846323321E9, 0.0, 2025-06-27 14:54:06.323
245.0, 3076.8070312508385, 18375.011488796652, -10083.453069144854, 0.0, 0.0, 0.0, 0.0, 0.0, 0.022, -0.008, -1.004, 192.0, 0.0, 0.0, 0.0, 0.0, 0.0, 0.0, 0.0, 0.0, 0.0, 1.751028846326378E9, 0.0, 2025-06-27 14:54:06.326
246.0, 3196.9476576981137, 18394.5916169395, -10212.042654996236, 0.0, 0.0, 0.0, 0.0, 0.0, 0.022, -0.008, -1.004, 192.0, 0.0, 0.0, 0.0, 0.0, 0.0, 0.0, 0.0, 0.0, 0.0, 1.751028846330382E9, 0.0, 2025-06-27 14:54:06.330
247.0, 3257.6326438942724, 18385.740326135197, -10248.543053691752, 0.0, 0.0, 0.0, 0.0, 0.0, 0.022, -0.008, -1.004, 192.0, 0.0, 0.0, 0.0, 0.0, 0.0, 0.0, 0.0, 0.0, 0.0, 1.751028846334412E9, 0.0, 2025-06-27 14:54:06.334
248.0, 3144.756334394972, 18361.57809037901, -10124.848499876083, 0.0, 0.0, 0.0, 0.0, 0.0, 0.022, -0.008, -1.004, 192.0, 0.0, 0.0, 0.0, 0.0, 0.0, 0.0, 0.0, 0.0, 0.0, 1.751028846338327E9, 0.0, 2025-06-27 14:54:06.338
249.0, 3037.4456092650425, 18354.336125175494, -10029.764178963207, 0.0, 0.0, 0.0, 0.0, 0.0, 0.022, -0.008, -1.004, 192.0, 0.0, 0.0, 0.0, 0.0, 0.0, 0.0, 0.0, 0.0, 0.0, 1.751028846342364E9, 0.0, 2025-06-27 14:54:06.342
250.0, 3071.5767230482966, 18376.240834741693, -10087.275217446711, 0.0, 0.0, 0.0, 0.0, 0.0, 0.022, -0.008, -1.004, 192.0, 0.0, 0.0, 0.0, 0.0, 0.0, 0.0, 0.0, 0.0, 0.0, 1.751028846347327E9, 0.0, 2025-06-27 14:54:06.347
251.0, 3201.105082166801, 18389.36130873696, -10213.741387574839, 0.0, 0.0, 0.0, 0.0, 0.0, 0.022, -0.008, -1.004, 192.0, 0.0, 0.0, 0.0, 0.0, 0.0, 0.0, 0.0, 0.0, 0.0, 1.751028846351433E9, 0.0, 2025-06-27 14:54:06.351
252.0, 3262.594731163351, 18383.706317389766, -10254.086286316668, 0.0, 0.0, 0.0, 0.0, 0.0, 0.018000000000000002, -0.004, -1.006, 192.0, 0.0, 144.0, 255.0, 224.0, 224.0, 144.0, 0.0, 0.0, 0.0, 1.751028846355415E9, 0.0, 2025-06-27 14:54:06.355
253.0, 3148.600834441285, 18363.723857846722, -10130.950526112381, 0.0, 0.0, 0.0, 0.0, 0.0, 0.018000000000000002, -0.004, -1.006, 192.0, 0.0, 0.0, 0.0, 0.0, 0.0, 0.0, 0.0, 0.0, 0.0, 1.75102884635844E9, 0.0, 2025-06-27 14:54:06.358
254.0, 3038.2279203209782, 18357.30890718805, -10033.385161564966, 0.0, 0.0, 0.0, 0.0, 0.0, 0.018000000000000002, -0.004, -1.006, 192.0, 0.0, 0.0, 0.0, 0.0, 0.0, 0.0, 0.0, 0.0, 0.0, 1.751028846362437E9, 0.0, 2025-06-27 14:54:06.362
255.0, 3067.7769264908943, 18374.564453907544, -10084.481249389799, 0.0, 0.0, 0.0, 0.0, 0.0, 0.018000000000000002, -0.004, -1.006, 192.0, 0.0, 0.0, 0.0, 0.0, 0.0, 0.0, 0.0, 0.0, 0.0, 1.75102884636643E9, 0.0, 2025-06-27 14:54:06.366
0.0, 3197.2829338649435, 18390.702413404277, -10211.64032359604, 0.0, 0.0, 0.0, 0.0, 0.0, 0.018000000000000002, -0.004, -1.006, 192.0, 0.0, 0.0, 0.0, 0.0, 0.0, 0.0, 0.0, 0.0, 0.0, 1.751028846370384E9, 0.0, 2025-06-27 14:54:06.370
1.0, 3256.403297949231, 18387.394355224893, -10254.958004350425, 0.0, 0.0, 0.0, 0.0, 0.0, 0.018000000000000002, -0.004, -1.006, 192.0, 0.0, 0.0, 0.0, 0.0, 0.0, 0.0, 0.0, 0.0, 0.0, 1.751028846375438E9, 0.0, 2025-06-27 14:54:06.375
2.0, 3143.6163954277513, 18359.34291593348, -10129.341200511599, 0.0, 0.0, 0.0, 0.0, 0.0, 0.018000000000000002, -0.004, -1.006, 192.0, 0.0, 0.0, 0.0, 0.0, 0.0, 0.0, 0.0, 0.0, 0.0, 1.751028846379401E9, 0.0, 2025-06-27 14:54:06.379
3.0, 3035.0316208638696, 18352.52563387461, -10035.12859763248, 0.0, 0.0, 0.0, 0.0, 0.0, 0.018000000000000002, -0.004, -1.006, 192.0, 0.0, 0.0, 0.0, 0.0, 0.0, 0.0, 0.0, 0.0, 0.0, 1.751028846383435E9, 0.0, 2025-06-27 14:54:06.383
4.0, 3069.520362558408, 18374.899730074376, -10089.890371547983, 0.0, 0.0, 0.0, 0.0, 0.0, 0.018000000000000002, -0.004, -1.006, 192.0, 0.0, 0.0, 0.0, 0.0, 0.0, 0.0, 0.0, 0.0, 0.0, 1.751028846386456E9, 0.0, 2025-06-27 14:54:06.386
5.0, 3193.907820452192, 18395.619797184445, -10213.87549804157, 0.0, 0.0, 0.0, 0.0, 0.0, 0.016, -0.006, -1.012, 192.0, 0.0, 128.0, 255.0, 208.0, 224.0, 96.0, 0.0, 0.0, 0.0, 1.751028846390431E9, 0.0, 2025-06-27 14:54:06.390
6.0, 3258.034975294468, 18387.461410458258, -10255.002707839336, 0.0, 0.0, 0.0, 0.0, 0.0, 0.016, -0.006, -1.012, 192.0, 0.0, 0.0, 0.0, 0.0, 0.0, 0.0, 0.0, 0.0, 0.0, 1.751028846394494E9, 0.0, 2025-06-27 14:54:06.394
7.0, 3147.8185233853487, 18360.460503156246, -10132.76101741326, 0.0, 0.0, 0.0, 0.0, 0.0, 0.016, -0.006, -1.012, 192.0, 0.0, 0.0, 0.0, 0.0, 0.0, 0.0, 0.0, 0.0, 0.0, 1.751028846398456E9, 0.0, 2025-06-27 14:54:06.398
8.0, 3036.3950772756434, 18353.97849726421, -10036.045019155148, 0.0, 0.0, 0.0, 0.0, 0.0, 0.016, -0.006, -1.012, 192.0, 0.0, 0.0, 0.0, 0.0, 0.0, 0.0, 0.0, 0.0, 0.0, 1.751028846403483E9, 0.0, 2025-06-27 14:54:06.403
9.0, 3062.7701357329056, 18373.5362736626, -10087.90106629146, 0.0, 0.0, 0.0, 0.0, 0.0, 0.016, -0.006, -1.012, 192.0, 0.0, 0.0, 0.0, 0.0, 0.0, 0.0, 0.0, 0.0, 0.0, 1.751028846407571E9, 0.0, 2025-06-27 14:54:06.407
10.0, 3190.5327070394405, 18390.54595119309, -10212.042654996236, 0.0, 0.0, 0.0, 0.0, 0.0, 0.016, -0.006, -1.012, 192.0, 0.0, 0.0, 0.0, 0.0, 0.0, 0.0, 0.0, 0.0, 0.0, 1.751028846410519E9, 0.0, 2025-06-27 14:54:06.410
11.0, 3253.6093298923174, 18386.768506380144, -10256.120295062101, 0.0, 0.0, 0.0, 0.0, 0.0, 0.016, -0.006, -1.012, 192.0, 0.0, 0.0, 0.0, 0.0, 0.0, 0.0, 0.0, 0.0, 0.0, 1.75102884641449E9, 0.0, 2025-06-27 14:54:06.414
12.0, 3146.030383828924, 18360.706372345256, -10131.799892401683, 0.0, 0.0, 0.0, 0.0, 0.0, 0.016, -0.006, -1.012, 192.0, 0.0, 0.0, 0.0, 0.0, 0.0, 0.0, 0.0, 0.0, 0.0, 1.751028846418555E9, 0.0, 2025-06-27 14:54:06.418
13.0, 3037.8032371763275, 18355.45371239826, -10037.408475566921, 0.0, 0.0, 0.0, 0.0, 0.0, 0.016, -0.006, -1.012, 192.0, 0.0, 0.0, 0.0, 0.0, 0.0, 0.0, 0.0, 0.0, 0.0, 1.751028846422499E9, 0.0, 2025-06-27 14:54:06.422
14.0, 3066.1899526345674, 18375.16795100784, -10089.845668059072, 0.0, 0.0, 0.0, 0.0, 0.0, 0.016, -0.006, -1.012, 192.0, 0.0, 0.0, 0.0, 0.0, 0.0, 0.0, 0.0, 0.0, 0.0, 1.751028846426545E9, 0.0, 2025-06-27 14:54:06.426
15.0, 3190.5774105283513, 18391.97646283823, -10215.015437008791, 0.0, 0.0, 0.0, 0.0, 0.0, 0.014, -0.006, -1.014, 192.0, 0.0, 112.0, 255.0, 208.0, 224.0, 80.0, 0.0, 0.0, 0.0, 1.751028846430546E9, 0.0, 2025-06-27 14:54:06.430
16.0, 3256.1797805046776, 18386.00854706866, -10257.03671658477, 0.0, 0.0, 0.0, 0.0, 0.0, 0.014, -0.006, -1.014, 192.0, 0.0, 0.0, 0.0, 0.0, 0.0, 0.0, 0.0, 0.0, 0.0, 1.751028846435539E9, 0.0, 2025-06-27 14:54:06.435
17.0, 3146.365659995754, 18362.49451190168, -10135.107950581069, 0.0, 0.0, 0.0, 0.0, 0.0, 0.014, -0.006, -1.014, 192.0, 0.0, 0.0, 0.0, 0.0, 0.0, 0.0, 0.0, 0.0, 0.0, 1.751028846438541E9, 0.0, 2025-06-27 14:54:06.438
18.0, 3034.986917374959, 18354.045552497573, -10036.514405788708, 0.0, 0.0, 0.0, 0.0, 0.0, 0.014, -0.006, -1.014, 192.0, 0.0, 0.0, 0.0, 0.0, 0.0, 0.0, 0.0, 0.0, 0.0, 1.751028846442605E9, 0.0, 2025-06-27 14:54:06.442
19.0, 3059.9985194204473, 18374.609157396455, -10089.890371547983, 0.0, 0.0, 0.0, 0.0, 0.0, 0.014, -0.006, -1.014, 192.0, 0.0, 0.0, 0.0, 0.0, 0.0, 0.0, 0.0, 0.0, 0.0, 1.751028846446556E9, 0.0, 2025-06-27 14:54:06.446
20.0, 3187.2917040934212, 18392.57995993852, -10217.3623701766, 0.0, 0.0, 0.0, 0.0, 0.0, 0.014, -0.006, -1.014, 192.0, 0.0, 0.0, 0.0, 0.0, 0.0, 0.0, 0.0, 0.0, 0.0, 1.751028846450615E9, 0.0, 2025-06-27 14:54:06.450
21.0, 3251.240044980055, 18388.199018025283, -10264.524550977296, 0.0, 0.0, 0.0, 0.0, 0.0, 0.014, -0.006, -1.014, 192.0, 0.0, 0.0, 0.0, 0.0, 0.0, 0.0, 0.0, 0.0, 0.0, 1.751028846454588E9, 0.0, 2025-06-27 14:54:06.454
22.0, 3146.7009361625837, 18363.098009001973, -10136.985497115315, 0.0, 0.0, 0.0, 0.0, 0.0, 0.014, -0.006, -1.014, 192.0, 0.0, 0.0, 0.0, 0.0, 0.0, 0.0, 0.0, 0.0, 0.0, 1.751028846458593E9, 0.0, 2025-06-27 14:54:06.458
23.0, 3037.0879813537576, 18355.67722984281, -10039.397780823443, 0.0, 0.0, 0.0, 0.0, 0.0, 0.014, -0.006, -1.014, 192.0, 0.0, 0.0, 0.0, 0.0, 0.0, 0.0, 0.0, 0.0, 0.0, 1.751028846463622E9, 0.0, 2025-06-27 14:54:06.463
24.0, 3060.8702374542045, 18377.179608008817, -10092.036139015692, 0.0, 0.0, 0.0, 0.0, 0.0, 0.014, -0.006, -1.014, 192.0, 0.0, 0.0, 0.0, 0.0, 0.0, 0.0, 0.0, 0.0, 0.0, 1.751028846467647E9, 0.0, 2025-06-27 14:54:06.467
25.0, 3189.660989005684, 18392.892884360896, -10218.815233566194, 0.0, 0.0, 0.0, 0.0, 0.0, 0.018000000000000002, -0.01, -1.004, 192.0, 0.0, 144.0, 255.0, 176.0, 224.0, 160.0, 0.0, 0.0, 0.0, 1.751028846470616E9, 0.0, 2025-06-27 14:54:06.470
26.0, 3254.2128269926106, 18385.82973311302, -10263.496370732353, 0.0, 0.0, 0.0, 0.0, 0.0, 0.018000000000000002, -0.01, -1.004, 192.0, 0.0, 0.0, 0.0, 0.0, 0.0, 0.0, 0.0, 0.0, 0.0, 1.751028846474623E9, 0.0, 2025-06-27 14:54:06.474
27.0, 3143.2811192609215, 18361.801607823563, -10138.080732593624, 0.0, 0.0, 0.0, 0.0, 0.0, 0.018000000000000002, -0.01, -1.004, 192.0, 0.0, 0.0, 0.0, 0.0, 0.0, 0.0, 0.0, 0.0, 0.0, 1.751028846478623E9, 0.0, 2025-06-27 14:54:06.478
28.0, 3031.432990006565, 18356.280726943103, -10039.263670356711, 0.0, 0.0, 0.0, 0.0, 0.0, 0.018000000000000002, -0.01, -1.004, 192.0, 0.0, 0.0, 0.0, 0.0, 0.0, 0.0, 0.0, 0.0, 0.0, 1.751028846482655E9, 0.0, 2025-06-27 14:54:06.482
